Wavelength,Reflectance
400.000,0.815386
400.100,0.815356
400.200,0.815329
400.300,0.815299
400.400,0.815273
400.500,0.815243
400.600,0.815216
400.700,0.815186
400.800,0.815157
400.900,0.815130
401.000,0.815101
401.100,0.815076
401.200,0.815050
401.300,0.815026
401.400,0.814999
401.500,0.814972
401.600,0.814949
401.700,0.814922
401.800,0.814898
401.900,0.814871
402.000,0.814848
402.100,0.814821
402.200,0.814798
402.300,0.814771
402.400,0.814747
402.500,0.814721
402.600,0.814698
402.700,0.814674
402.800,0.814653
402.900,0.814630
403.000,0.814609
403.100,0.814585
403.200,0.814564
403.300,0.814540
403.400,0.814520
403.500,0.814496
403.600,0.814475
403.700,0.814451
403.800,0.814431
403.900,0.814407
404.000,0.814386
404.100,0.814363
404.200,0.814343
404.300,0.814322
404.400,0.814304
404.500,0.814283
404.600,0.814264
404.700,0.814244
404.800,0.814226
404.900,0.814205
405.000,0.814187
405.100,0.814166
405.200,0.814148
405.300,0.814130
405.400,0.814109
405.500,0.814091
405.600,0.814071
405.700,0.814053
405.800,0.814033
405.900,0.814017
406.000,0.813999
406.100,0.813983
406.200,0.813965
406.300,0.813949
406.400,0.813931
406.500,0.813915
406.600,0.813897
406.700,0.813882
406.800,0.813863
406.900,0.813848
407.000,0.813830
407.100,0.813814
407.200,0.813796
407.300,0.813780
407.400,0.813764
407.500,0.813750
407.600,0.813734
407.700,0.813721
407.800,0.813705
407.900,0.813692
408.000,0.813676
408.100,0.813662
408.200,0.813647
408.300,0.813633
408.400,0.813618
408.500,0.813604
408.600,0.813591
408.700,0.813576
408.800,0.813563
408.900,0.813547
409.000,0.813535
409.100,0.813521
409.200,0.813510
409.300,0.813496
409.400,0.813485
409.500,0.813471
409.600,0.813460
409.700,0.813447
409.800,0.813435
409.900,0.813422
410.000,0.813411
410.100,0.813397
410.200,0.813386
410.300,0.813372
410.400,0.813362
410.500,0.813348
410.600,0.813338
410.700,0.813326
410.800,0.813317
410.900,0.813306
411.000,0.813296
411.100,0.813285
411.200,0.813276
411.300,0.813263
411.400,0.813254
411.500,0.813243
411.600,0.813233
411.700,0.813224
411.800,0.813213
411.900,0.813204
412.000,0.813192
412.100,0.813183
412.200,0.813173
412.300,0.813165
412.400,0.813155
412.500,0.813148
412.600,0.813137
412.700,0.813130
412.800,0.813120
412.900,0.813112
413.000,0.813102
413.100,0.813095
413.200,0.813085
413.300,0.813077
413.400,0.813068
413.500,0.813060
413.600,0.813050
413.700,0.813043
413.800,0.813034
413.900,0.813028
414.000,0.813020
414.100,0.813014
414.200,0.813005
414.300,0.812999
414.400,0.812991
414.500,0.812985
414.600,0.812976
414.700,0.812971
414.800,0.812962
414.900,0.812956
415.000,0.812950
415.100,0.812942
415.200,0.812936
415.300,0.812931
415.400,0.812923
415.500,0.812919
415.600,0.812914
415.700,0.812910
415.800,0.812902
415.900,0.812898
416.000,0.812894
416.100,0.812886
416.200,0.812881
416.300,0.812877
416.400,0.812870
416.500,0.812865
416.600,0.812861
416.700,0.812854
416.800,0.812849
416.900,0.812845
417.000,0.812842
417.100,0.812835
417.200,0.812832
417.300,0.812829
417.400,0.812823
417.500,0.812819
417.600,0.812816
417.700,0.812809
417.800,0.812806
417.900,0.812803
418.000,0.812797
418.100,0.812793
418.200,0.812790
418.300,0.812786
418.400,0.812780
418.500,0.812777
418.600,0.812775
418.700,0.812770
418.800,0.812768
418.900,0.812766
419.000,0.812761
419.100,0.812758
419.200,0.812756
419.300,0.812751
419.400,0.812748
419.500,0.812746
419.600,0.812743
419.700,0.812739
419.800,0.812736
419.900,0.812734
420.000,0.812728
420.100,0.812727
420.200,0.812725
420.300,0.812721
420.400,0.812720
420.500,0.812718
420.600,0.812714
420.700,0.812713
420.800,0.812711
420.900,0.812709
421.000,0.812705
421.100,0.812703
421.200,0.812702
421.300,0.812697
421.400,0.812695
421.500,0.812694
421.600,0.812690
421.700,0.812689
421.800,0.812688
421.900,0.812687
422.000,0.812684
422.100,0.812683
422.200,0.812682
422.300,0.812679
422.400,0.812678
422.500,0.812677
422.600,0.812673
422.700,0.812672
422.800,0.812671
422.900,0.812668
423.000,0.812667
423.100,0.812666
423.200,0.812665
423.300,0.812662
423.400,0.812662
423.500,0.812662
423.600,0.812659
423.700,0.812658
423.800,0.812658
423.900,0.812655
424.000,0.812655
424.100,0.812655
424.200,0.812651
424.300,0.812651
424.400,0.812650
424.500,0.812650
424.600,0.812647
424.700,0.812646
424.800,0.812646
424.900,0.812644
425.000,0.812644
425.100,0.812644
425.200,0.812642
425.300,0.812642
425.400,0.812642
425.500,0.812639
425.600,0.812640
425.700,0.812639
425.800,0.812640
425.900,0.812637
426.000,0.812637
426.100,0.812637
426.200,0.812634
426.300,0.812634
426.400,0.812634
426.500,0.812632
426.600,0.812633
426.700,0.812633
426.800,0.812631
426.900,0.812631
427.000,0.812632
427.100,0.812633
427.200,0.812630
427.300,0.812630
427.400,0.812631
427.500,0.812629
427.600,0.812629
427.700,0.812629
427.800,0.812629
427.900,0.812630
428.000,0.812630
428.100,0.812631
428.200,0.812629
428.300,0.812630
428.400,0.812630
428.500,0.812631
428.600,0.812632
428.700,0.812632
428.800,0.812633
428.900,0.812634
429.000,0.812634
429.100,0.812635
429.200,0.812635
429.300,0.812636
429.400,0.812633
429.500,0.812633
429.600,0.812635
429.700,0.812636
429.800,0.812636
429.900,0.812637
430.000,0.812638
430.100,0.812638
430.200,0.812640
430.300,0.812640
430.400,0.812641
430.500,0.812642
430.600,0.812640
430.700,0.812641
430.800,0.812641
430.900,0.812641
431.000,0.812642
431.100,0.812643
431.200,0.812644
431.300,0.812645
431.400,0.812645
431.500,0.812646
431.600,0.812647
431.700,0.812648
431.800,0.812646
431.900,0.812647
432.000,0.812648
432.100,0.812649
432.200,0.812649
432.300,0.812650
432.400,0.812650
432.500,0.812651
432.600,0.812652
432.700,0.812652
432.800,0.812653
432.900,0.812654
433.000,0.812652
433.100,0.812653
433.200,0.812654
433.300,0.812655
433.400,0.812656
433.500,0.812656
433.600,0.812657
433.700,0.812657
433.800,0.812658
433.900,0.812659
434.000,0.812659
434.100,0.812660
434.200,0.812657
434.300,0.812658
434.400,0.812659
434.500,0.812660
434.600,0.812661
434.700,0.812661
434.800,0.812662
434.900,0.812663
435.000,0.812663
435.100,0.812664
435.200,0.812665
435.300,0.812666
435.400,0.812663
435.500,0.812664
435.600,0.812664
435.700,0.812665
435.800,0.812666
435.900,0.812666
436.000,0.812667
436.100,0.812667
436.200,0.812668
436.300,0.812668
436.400,0.812669
436.500,0.812670
436.600,0.812668
436.700,0.812668
436.800,0.812669
436.900,0.812669
437.000,0.812670
437.100,0.812670
437.200,0.812671
437.300,0.812671
437.400,0.812671
437.500,0.812671
437.600,0.812672
437.700,0.812672
437.800,0.812670
437.900,0.812671
438.000,0.812671
438.100,0.812671
438.200,0.812672
438.300,0.812672
438.400,0.812672
438.500,0.812673
438.600,0.812673
438.700,0.812674
438.800,0.812673
438.900,0.812673
439.000,0.812671
439.100,0.812671
439.200,0.812671
439.300,0.812672
439.400,0.812672
439.500,0.812672
439.600,0.812672
439.700,0.812672
439.800,0.812673
439.900,0.812670
440.000,0.812670
440.100,0.812670
440.200,0.812670
440.300,0.812671
440.400,0.812670
440.500,0.812670
440.600,0.812668
440.700,0.812668
440.800,0.812668
440.900,0.812668
441.000,0.812668
441.100,0.812668
441.200,0.812668
441.300,0.812665
441.400,0.812665
441.500,0.812665
441.600,0.812665
441.700,0.812664
441.800,0.812664
441.900,0.812664
442.000,0.812661
442.100,0.812661
442.200,0.812660
442.300,0.812660
442.400,0.812660
442.500,0.812660
442.600,0.812659
442.700,0.812656
442.800,0.812656
442.900,0.812656
443.000,0.812656
443.100,0.812655
443.200,0.812655
443.300,0.812655
443.400,0.812652
443.500,0.812651
443.600,0.812650
443.700,0.812650
443.800,0.812650
443.900,0.812649
444.000,0.812648
444.100,0.812645
444.200,0.812645
444.300,0.812645
444.400,0.812644
444.500,0.812643
444.600,0.812642
444.700,0.812642
444.800,0.812639
444.900,0.812638
445.000,0.812637
445.100,0.812637
445.200,0.812636
445.300,0.812636
445.400,0.812634
445.500,0.812631
445.600,0.812630
445.700,0.812630
445.800,0.812629
445.900,0.812628
446.000,0.812627
446.100,0.812627
446.200,0.812626
446.300,0.812622
446.400,0.812621
446.500,0.812620
446.600,0.812620
446.700,0.812618
446.800,0.812617
446.900,0.812616
447.000,0.812613
447.100,0.812612
447.200,0.812611
447.300,0.812609
447.400,0.812608
447.500,0.812608
447.600,0.812606
447.700,0.812602
447.800,0.812601
447.900,0.812600
448.000,0.812599
448.100,0.812598
448.200,0.812596
448.300,0.812596
448.400,0.812592
448.500,0.812590
448.600,0.812589
448.700,0.812587
448.800,0.812587
448.900,0.812585
449.000,0.812584
449.100,0.812580
449.200,0.812579
449.300,0.812577
449.400,0.812576
449.500,0.812574
449.600,0.812573
449.700,0.812572
449.800,0.812568
449.900,0.812566
450.000,0.812565
450.100,0.812563
450.200,0.812562
450.300,0.812560
450.400,0.812559
450.500,0.812554
450.600,0.812553
450.700,0.812551
450.800,0.812550
450.900,0.812548
451.000,0.812546
451.100,0.812545
451.200,0.812541
451.300,0.812539
451.400,0.812537
451.500,0.812536
451.600,0.812534
451.700,0.812532
451.800,0.812530
451.900,0.812526
452.000,0.812524
452.100,0.812522
452.200,0.812520
452.300,0.812518
452.400,0.812514
452.500,0.812512
452.600,0.812510
452.700,0.812508
452.800,0.812504
452.900,0.812502
453.000,0.812500
453.100,0.812498
453.200,0.812494
453.300,0.812492
453.400,0.812490
453.500,0.812488
453.600,0.812483
453.700,0.812481
453.800,0.812479
453.900,0.812474
454.000,0.812472
454.100,0.812470
454.200,0.812468
454.300,0.812463
454.400,0.812461
454.500,0.812459
454.600,0.812457
454.700,0.812452
454.800,0.812450
454.900,0.812448
455.000,0.812443
455.100,0.812440
455.200,0.812438
455.300,0.812436
455.400,0.812431
455.500,0.812428
455.600,0.812426
455.700,0.812424
455.800,0.812419
455.900,0.812416
456.000,0.812414
456.100,0.812411
456.200,0.812406
456.300,0.812404
456.400,0.812401
456.500,0.812396
456.600,0.812394
456.700,0.812391
456.800,0.812388
456.900,0.812383
457.000,0.812381
457.100,0.812378
457.200,0.812376
457.300,0.812370
457.400,0.812368
457.500,0.812365
457.600,0.812360
457.700,0.812357
457.800,0.812354
457.900,0.812352
458.000,0.812347
458.100,0.812344
458.200,0.812341
458.300,0.812338
458.400,0.812333
458.500,0.812330
458.600,0.812327
458.700,0.812324
458.800,0.812318
458.900,0.812315
459.000,0.812312
459.100,0.812307
459.200,0.812304
459.300,0.812301
459.400,0.812298
459.500,0.812293
459.600,0.812290
459.700,0.812287
459.800,0.812284
459.900,0.812277
460.000,0.812274
460.100,0.812271
460.200,0.812265
460.300,0.812262
460.400,0.812258
460.500,0.812256
460.600,0.812250
460.700,0.812246
460.800,0.812243
460.900,0.812240
461.000,0.812234
461.100,0.812230
461.200,0.812227
461.300,0.812224
461.400,0.812218
461.500,0.812214
461.600,0.812211
461.700,0.812204
461.800,0.812201
461.900,0.812197
462.000,0.812194
462.100,0.812187
462.200,0.812184
462.300,0.812180
462.400,0.812176
462.500,0.812170
462.600,0.812166
462.700,0.812163
462.800,0.812157
462.900,0.812153
463.000,0.812148
463.100,0.812144
463.200,0.812138
463.300,0.812134
463.400,0.812130
463.500,0.812126
463.600,0.812119
463.700,0.812115
463.800,0.812111
463.900,0.812107
464.000,0.812100
464.100,0.812096
464.200,0.812092
464.300,0.812088
464.400,0.812084
464.500,0.812079
464.600,0.812077
464.700,0.812073
464.800,0.812068
464.900,0.812064
465.000,0.812059
465.100,0.812055
465.200,0.812050
465.300,0.812045
465.400,0.812041
465.500,0.812036
465.600,0.812034
465.700,0.812030
465.800,0.812025
465.900,0.812020
466.000,0.812016
466.100,0.812011
466.200,0.812006
466.300,0.812001
466.400,0.811996
466.500,0.811990
466.600,0.811988
466.700,0.811983
466.800,0.811977
466.900,0.811972
467.000,0.811967
467.100,0.811962
467.200,0.811957
467.300,0.811951
467.400,0.811947
467.500,0.811941
467.600,0.811939
467.700,0.811933
467.800,0.811927
467.900,0.811921
468.000,0.811915
468.100,0.811909
468.200,0.811904
468.300,0.811898
468.400,0.811892
468.500,0.811886
468.600,0.811883
468.700,0.811877
468.800,0.811871
468.900,0.811865
469.000,0.811859
469.100,0.811854
469.200,0.811847
469.300,0.811841
469.400,0.811834
469.500,0.811827
469.600,0.811823
469.700,0.811817
469.800,0.811810
469.900,0.811803
470.000,0.811797
470.100,0.811790
470.200,0.811783
470.300,0.811777
470.400,0.811770
470.500,0.811763
470.600,0.811759
470.700,0.811752
470.800,0.811745
470.900,0.811738
471.000,0.811730
471.100,0.811723
471.200,0.811715
471.300,0.811708
471.400,0.811700
471.500,0.811693
471.600,0.811687
471.700,0.811679
471.800,0.811672
471.900,0.811664
472.000,0.811657
472.100,0.811649
472.200,0.811642
472.300,0.811634
472.400,0.811626
472.500,0.811618
472.600,0.811612
472.700,0.811603
472.800,0.811594
472.900,0.811586
473.000,0.811577
473.100,0.811569
473.200,0.811560
473.300,0.811551
473.400,0.811542
473.500,0.811534
473.600,0.811528
473.700,0.811519
473.800,0.811511
473.900,0.811502
474.000,0.811493
474.100,0.811483
474.200,0.811473
474.300,0.811463
474.400,0.811454
474.500,0.811444
474.600,0.811436
474.700,0.811427
474.800,0.811417
474.900,0.811407
475.000,0.811397
475.100,0.811387
475.200,0.811377
475.300,0.811367
475.400,0.811358
475.500,0.811348
475.600,0.811340
475.700,0.811329
475.800,0.811318
475.900,0.811307
476.000,0.811295
476.100,0.811284
476.200,0.811273
476.300,0.811262
476.400,0.811251
476.500,0.811240
476.600,0.811228
476.700,0.811217
476.800,0.811206
476.900,0.811195
477.000,0.811183
477.100,0.811172
477.200,0.811158
477.300,0.811145
477.400,0.811133
477.500,0.811120
477.600,0.811107
477.700,0.811095
477.800,0.811082
477.900,0.811069
478.000,0.811057
478.100,0.811044
478.200,0.811032
478.300,0.811019
478.400,0.811006
478.500,0.810994
478.600,0.810981
478.700,0.810969
478.800,0.810955
478.900,0.810941
479.000,0.810927
479.100,0.810912
479.200,0.810898
479.300,0.810885
479.400,0.810870
479.500,0.810853
479.600,0.810839
479.700,0.810825
479.800,0.810810
479.900,0.810797
480.000,0.810782
480.100,0.810768
480.200,0.810754
480.300,0.810739
480.400,0.810724
480.500,0.810708
480.600,0.810692
480.700,0.810676
480.800,0.810661
480.900,0.810645
481.000,0.810629
481.100,0.810612
481.200,0.810597
481.300,0.810580
481.400,0.810565
481.500,0.810549
481.600,0.810533
481.700,0.810514
481.800,0.810498
481.900,0.810482
482.000,0.810465
482.100,0.810447
482.200,0.810430
482.300,0.810412
482.400,0.810394
482.500,0.810376
482.600,0.810359
482.700,0.810341
482.800,0.810323
482.900,0.810305
483.000,0.810288
483.100,0.810270
483.200,0.810252
483.300,0.810234
483.400,0.810216
483.500,0.810199
483.600,0.810180
483.700,0.810160
483.800,0.810140
483.900,0.810120
484.000,0.810098
484.100,0.810079
484.200,0.810059
484.300,0.810040
484.400,0.810020
484.500,0.810000
484.600,0.809981
484.700,0.809961
484.800,0.809942
484.900,0.809921
485.000,0.809902
485.100,0.809883
485.200,0.809861
485.300,0.809840
485.400,0.809818
485.500,0.809796
485.600,0.809775
485.700,0.809753
485.800,0.809732
485.900,0.809710
486.000,0.809688
486.100,0.809667
486.200,0.809645
486.300,0.809621
486.400,0.809599
486.500,0.809578
486.600,0.809556
486.700,0.809535
486.800,0.809512
486.900,0.809488
487.000,0.809464
487.100,0.809441
487.200,0.809418
487.300,0.809394
487.400,0.809371
487.500,0.809347
487.600,0.809324
487.700,0.809300
487.800,0.809277
487.900,0.809254
488.000,0.809230
488.100,0.809207
488.200,0.809183
488.300,0.809160
488.400,0.809135
488.500,0.809107
488.600,0.809082
488.700,0.809056
488.800,0.809031
488.900,0.809006
489.000,0.808980
489.100,0.808955
489.200,0.808930
489.300,0.808904
489.400,0.808879
489.500,0.808854
489.600,0.808829
489.700,0.808803
489.800,0.808778
489.900,0.808750
490.000,0.808723
490.100,0.808696
490.200,0.808669
490.300,0.808639
490.400,0.808612
490.500,0.808585
490.600,0.808559
490.700,0.808529
490.800,0.808502
490.900,0.808475
491.000,0.808448
491.100,0.808421
491.200,0.808392
491.300,0.808364
491.400,0.808338
491.500,0.808310
491.600,0.808279
491.700,0.808251
491.800,0.808222
491.900,0.808194
492.000,0.808162
492.100,0.808134
492.200,0.808106
492.300,0.808077
492.400,0.808049
492.500,0.808018
492.600,0.807989
492.700,0.807961
492.800,0.807932
492.900,0.807901
493.000,0.807873
493.100,0.807844
493.200,0.807814
493.300,0.807784
493.400,0.807752
493.500,0.807722
493.600,0.807692
493.700,0.807663
493.800,0.807630
493.900,0.807601
494.000,0.807571
494.100,0.807542
494.200,0.807509
494.300,0.807480
494.400,0.807450
494.500,0.807420
494.600,0.807391
494.700,0.807358
494.800,0.807327
494.900,0.807296
495.000,0.807266
495.100,0.807233
495.200,0.807202
495.300,0.807171
495.400,0.807140
495.500,0.807107
495.600,0.807077
495.700,0.807046
495.800,0.807015
495.900,0.806985
496.000,0.806951
496.100,0.806921
496.200,0.806890
496.300,0.806859
496.400,0.806825
496.500,0.806794
496.600,0.806763
496.700,0.806732
496.800,0.806698
496.900,0.806667
497.000,0.806636
497.100,0.806605
497.200,0.806573
497.300,0.806540
497.400,0.806508
497.500,0.806477
497.600,0.806446
497.700,0.806412
497.800,0.806381
497.900,0.806350
498.000,0.806318
498.100,0.806287
498.200,0.806253
498.300,0.806221
498.400,0.806190
498.500,0.806158
498.600,0.806124
498.700,0.806092
498.800,0.806061
498.900,0.806030
499.000,0.805995
499.100,0.805964
499.200,0.805932
499.300,0.805901
499.400,0.805869
499.500,0.805835
499.600,0.805803
499.700,0.805772
499.800,0.805741
499.900,0.805706
500.000,0.805675
500.100,0.805644
500.200,0.805612
500.300,0.805578
500.400,0.805546
500.500,0.805515
500.600,0.805483
500.700,0.805452
500.800,0.805418
500.900,0.805386
501.000,0.805355
501.100,0.805323
501.200,0.805290
501.300,0.805258
501.400,0.805227
501.500,0.805196
501.600,0.805162
501.700,0.805131
501.800,0.805100
501.900,0.805069
502.000,0.805037
502.100,0.805003
502.200,0.804972
502.300,0.804941
502.400,0.804910
502.500,0.804876
502.600,0.804844
502.700,0.804814
502.800,0.804783
502.900,0.804750
503.000,0.804719
503.100,0.804689
503.200,0.804658
503.300,0.804627
503.400,0.804594
503.500,0.804563
503.600,0.804533
503.700,0.804502
503.800,0.804468
503.900,0.804437
504.000,0.804406
504.100,0.804375
504.200,0.804345
504.300,0.804312
504.400,0.804282
504.500,0.804252
504.600,0.804222
504.700,0.804189
504.800,0.804159
504.900,0.804129
505.000,0.804099
505.100,0.804066
505.200,0.804035
505.300,0.804005
505.400,0.803975
505.500,0.803945
505.600,0.803911
505.700,0.803881
505.800,0.803850
505.900,0.803822
506.000,0.803789
506.100,0.803760
506.200,0.803730
506.300,0.803701
506.400,0.803669
506.500,0.803639
506.600,0.803610
506.700,0.803580
506.800,0.803550
506.900,0.803518
507.000,0.803488
507.100,0.803458
507.200,0.803428
507.300,0.803395
507.400,0.803366
507.500,0.803337
507.600,0.803308
507.700,0.803280
507.800,0.803248
507.900,0.803220
508.000,0.803191
508.100,0.803162
508.200,0.803131
508.300,0.803102
508.400,0.803072
508.500,0.803043
508.600,0.803014
508.700,0.802982
508.800,0.802953
508.900,0.802923
509.000,0.802894
509.100,0.802864
509.200,0.802836
509.300,0.802808
509.400,0.802780
509.500,0.802751
509.600,0.802720
509.700,0.802692
509.800,0.802664
509.900,0.802635
510.000,0.802607
510.100,0.802575
510.200,0.802546
510.300,0.802518
510.400,0.802489
510.500,0.802457
510.600,0.802429
510.700,0.802402
510.800,0.802375
510.900,0.802347
511.000,0.802317
511.100,0.802289
511.200,0.802261
511.300,0.802234
511.400,0.802203
511.500,0.802175
511.600,0.802147
511.700,0.802119
511.800,0.802091
511.900,0.802060
512.000,0.802032
512.100,0.802003
512.200,0.801976
512.300,0.801946
512.400,0.801919
512.500,0.801892
512.600,0.801865
512.700,0.801838
512.800,0.801808
512.900,0.801781
513.000,0.801753
513.100,0.801726
513.200,0.801695
513.300,0.801668
513.400,0.801640
513.500,0.801612
513.600,0.801584
513.700,0.801554
513.800,0.801526
513.900,0.801500
514.000,0.801474
514.100,0.801444
514.200,0.801418
514.300,0.801391
514.400,0.801364
514.500,0.801338
514.600,0.801308
514.700,0.801281
514.800,0.801254
514.900,0.801227
515.000,0.801196
515.100,0.801169
515.200,0.801142
515.300,0.801114
515.400,0.801088
515.500,0.801059
515.600,0.801033
515.700,0.801007
515.800,0.800981
515.900,0.800951
516.000,0.800925
516.100,0.800899
516.200,0.800872
516.300,0.800845
516.400,0.800816
516.500,0.800789
516.600,0.800762
516.700,0.800735
516.800,0.800708
516.900,0.800678
517.000,0.800652
517.100,0.800626
517.200,0.800601
517.300,0.800572
517.400,0.800547
517.500,0.800520
517.600,0.800494
517.700,0.800468
517.800,0.800439
517.900,0.800413
518.000,0.800386
518.100,0.800360
518.200,0.800331
518.300,0.800304
518.400,0.800277
518.500,0.800250
518.600,0.800225
518.700,0.800197
518.800,0.800171
518.900,0.800146
519.000,0.800120
519.100,0.800091
519.200,0.800065
519.300,0.800039
519.400,0.800014
519.500,0.799988
519.600,0.799959
519.700,0.799932
519.800,0.799906
519.900,0.799880
520.000,0.799850
520.100,0.799824
520.200,0.799798
520.300,0.799774
520.400,0.799748
520.500,0.799720
520.600,0.799694
520.700,0.799669
520.800,0.799643
520.900,0.799614
521.000,0.799588
521.100,0.799563
521.200,0.799536
521.300,0.799511
521.400,0.799481
521.500,0.799456
521.600,0.799429
521.700,0.799403
521.800,0.799375
521.900,0.799349
522.000,0.799324
522.100,0.799299
522.200,0.799273
522.300,0.799245
522.400,0.799219
522.500,0.799194
522.600,0.799168
522.700,0.799139
522.800,0.799114
522.900,0.799088
523.000,0.799061
523.100,0.799035
523.200,0.799006
523.300,0.798980
523.400,0.798955
523.500,0.798930
523.600,0.798904
523.700,0.798876
523.800,0.798850
523.900,0.798825
524.000,0.798799
524.100,0.798770
524.200,0.798745
524.300,0.798719
524.400,0.798693
524.500,0.798666
524.600,0.798638
524.700,0.798612
524.800,0.798586
524.900,0.798559
525.000,0.798531
525.100,0.798505
525.200,0.798480
525.300,0.798454
525.400,0.798428
525.500,0.798400
525.600,0.798374
525.700,0.798348
525.800,0.798322
525.900,0.798293
526.000,0.798267
526.100,0.798241
526.200,0.798214
526.300,0.798185
526.400,0.798159
526.500,0.798133
526.600,0.798107
526.700,0.798078
526.800,0.798053
526.900,0.798027
527.000,0.798001
527.100,0.797972
527.200,0.797945
527.300,0.797919
527.400,0.797893
527.500,0.797864
527.600,0.797838
527.700,0.797811
527.800,0.797784
527.900,0.797755
528.000,0.797728
528.100,0.797702
528.200,0.797675
528.300,0.797647
528.400,0.797620
528.500,0.797593
528.600,0.797568
528.700,0.797538
528.800,0.797511
528.900,0.797485
529.000,0.797458
529.100,0.797428
529.200,0.797402
529.300,0.797374
529.400,0.797348
529.500,0.797318
529.600,0.797290
529.700,0.797263
529.800,0.797237
529.900,0.797207
530.000,0.797180
530.100,0.797153
530.200,0.797126
530.300,0.797096
530.400,0.797068
530.500,0.797042
530.600,0.797014
530.700,0.796984
530.800,0.796956
530.900,0.796928
531.000,0.796901
531.100,0.796871
531.200,0.796842
531.300,0.796814
531.400,0.796784
531.500,0.796756
531.600,0.796729
531.700,0.796701
531.800,0.796671
531.900,0.796643
532.000,0.796615
532.100,0.796587
532.200,0.796556
532.300,0.796527
532.400,0.796499
532.500,0.796471
532.600,0.796440
532.700,0.796411
532.800,0.796383
532.900,0.796355
533.000,0.796323
533.100,0.796295
533.200,0.796265
533.300,0.796237
533.400,0.796205
533.500,0.796176
533.600,0.796147
533.700,0.796118
533.800,0.796085
533.900,0.796056
534.000,0.796027
534.100,0.795998
534.200,0.795966
534.300,0.795936
534.400,0.795907
534.500,0.795877
534.600,0.795844
534.700,0.795814
534.800,0.795785
534.900,0.795754
535.000,0.795722
535.100,0.795691
535.200,0.795662
535.300,0.795631
535.400,0.795598
535.500,0.795567
535.600,0.795536
535.700,0.795507
535.800,0.795473
535.900,0.795442
536.000,0.795411
536.100,0.795380
536.200,0.795346
536.300,0.795315
536.400,0.795283
536.500,0.795249
536.600,0.795217
536.700,0.795186
536.800,0.795154
536.900,0.795119
537.000,0.795087
537.100,0.795056
537.200,0.795024
537.300,0.794988
537.400,0.794956
537.500,0.794924
537.600,0.794891
537.700,0.794856
537.800,0.794823
537.900,0.794790
538.000,0.794756
538.100,0.794720
538.200,0.794687
538.300,0.794653
538.400,0.794619
538.500,0.794583
538.600,0.794549
538.700,0.794515
538.800,0.794482
538.900,0.794444
539.000,0.794410
539.100,0.794376
539.200,0.794342
539.300,0.794303
539.400,0.794268
539.500,0.794234
539.600,0.794198
539.700,0.794160
539.800,0.794124
539.900,0.794088
540.000,0.794052
540.100,0.794013
540.200,0.793976
540.300,0.793941
540.400,0.793904
540.500,0.793864
540.600,0.793828
540.700,0.793791
540.800,0.793754
540.900,0.793714
541.000,0.793676
541.100,0.793638
541.200,0.793600
541.300,0.793559
541.400,0.793519
541.500,0.793481
541.600,0.793438
541.700,0.793400
541.800,0.793361
541.900,0.793321
542.000,0.793279
542.100,0.793239
542.200,0.793199
542.300,0.793160
542.400,0.793117
542.500,0.793075
542.600,0.793035
542.700,0.792993
542.800,0.792948
542.900,0.792905
543.000,0.792863
543.100,0.792820
543.200,0.792774
543.300,0.792731
543.400,0.792688
543.500,0.792645
543.600,0.792599
543.700,0.792554
543.800,0.792511
543.900,0.792467
544.000,0.792420
544.100,0.792374
544.200,0.792329
544.300,0.792283
544.400,0.792233
544.500,0.792187
544.600,0.792139
544.700,0.792092
544.800,0.792041
544.900,0.791993
545.000,0.791945
545.100,0.791896
545.200,0.791845
545.300,0.791797
545.400,0.791748
545.500,0.791699
545.600,0.791647
545.700,0.791596
545.800,0.791546
545.900,0.791495
546.000,0.791440
546.100,0.791388
546.200,0.791335
546.300,0.791282
546.400,0.791226
546.500,0.791173
546.600,0.791120
546.700,0.791066
546.800,0.791012
546.900,0.790958
547.000,0.790904
547.100,0.790849
547.200,0.790791
547.300,0.790734
547.400,0.790678
547.500,0.790621
547.600,0.790563
547.700,0.790504
547.800,0.790445
547.900,0.790386
548.000,0.790327
548.100,0.790267
548.200,0.790206
548.300,0.790146
548.400,0.790086
548.500,0.790025
548.600,0.789960
548.700,0.789899
548.800,0.789837
548.900,0.789774
549.000,0.789711
549.100,0.789647
549.200,0.789582
549.300,0.789516
549.400,0.789450
549.500,0.789384
549.600,0.789317
549.700,0.789249
549.800,0.789182
549.900,0.789112
550.000,0.789043
550.100,0.788975
550.200,0.788906
550.300,0.788837
550.400,0.788767
550.500,0.788697
550.600,0.788626
550.700,0.788554
550.800,0.788480
550.900,0.788406
551.000,0.788331
551.100,0.788256
551.200,0.788177
551.300,0.788101
551.400,0.788025
551.500,0.787949
551.600,0.787871
551.700,0.787794
551.800,0.787716
551.900,0.787638
552.000,0.787560
552.100,0.787479
552.200,0.787399
552.300,0.787318
552.400,0.787235
552.500,0.787151
552.600,0.787063
552.700,0.786980
552.800,0.786894
552.900,0.786808
553.000,0.786723
553.100,0.786636
553.200,0.786549
553.300,0.786461
553.400,0.786374
553.500,0.786285
553.600,0.786196
553.700,0.786107
553.800,0.786016
553.900,0.785921
554.000,0.785827
554.100,0.785733
554.200,0.785638
554.300,0.785543
554.400,0.785448
554.500,0.785351
554.600,0.785255
554.700,0.785157
554.800,0.785060
554.900,0.784960
555.000,0.784861
555.100,0.784762
555.200,0.784658
555.300,0.784558
555.400,0.784456
555.500,0.784352
555.600,0.784248
555.700,0.784142
555.800,0.784037
555.900,0.783930
556.000,0.783822
556.100,0.783715
556.200,0.783606
556.300,0.783497
556.400,0.783388
556.500,0.783277
556.600,0.783164
556.700,0.783051
556.800,0.782940
556.900,0.782828
557.000,0.782715
557.100,0.782599
557.200,0.782482
557.300,0.782367
557.400,0.782249
557.500,0.782130
557.600,0.782013
557.700,0.781893
557.800,0.781772
557.900,0.781649
558.000,0.781527
558.100,0.781405
558.200,0.781281
558.300,0.781160
558.400,0.781035
558.500,0.780912
558.600,0.780788
558.700,0.780662
558.800,0.780534
558.900,0.780407
559.000,0.780278
559.100,0.780151
559.200,0.780016
559.300,0.779888
559.400,0.779755
559.500,0.779625
559.600,0.779493
559.700,0.779360
559.800,0.779227
559.900,0.779092
560.000,0.778960
560.100,0.778826
560.200,0.778689
560.300,0.778554
560.400,0.778418
560.500,0.778282
560.600,0.778142
560.700,0.778003
560.800,0.777866
560.900,0.777726
561.000,0.777587
561.100,0.777446
561.200,0.777305
561.300,0.777164
561.400,0.777021
561.500,0.776879
561.600,0.776740
561.700,0.776596
561.800,0.776456
561.900,0.776311
562.000,0.776170
562.100,0.776027
562.200,0.775885
562.300,0.775742
562.400,0.775599
562.500,0.775454
562.600,0.775312
562.700,0.775166
562.800,0.775020
562.900,0.774875
563.000,0.774729
563.100,0.774584
563.200,0.774434
563.300,0.774291
563.400,0.774147
563.500,0.774005
563.600,0.773864
563.700,0.773721
563.800,0.773578
563.900,0.773435
564.000,0.773293
564.100,0.773150
564.200,0.773007
564.300,0.772864
564.400,0.772720
564.500,0.772575
564.600,0.772430
564.700,0.772284
564.800,0.772145
564.900,0.772005
565.000,0.771866
565.100,0.771731
565.200,0.771595
565.300,0.771461
565.400,0.771329
565.500,0.771193
565.600,0.771058
565.700,0.770923
565.800,0.770789
565.900,0.770657
566.000,0.770521
566.100,0.770387
566.200,0.770254
566.300,0.770122
566.400,0.769995
566.500,0.769863
566.600,0.769741
566.700,0.769624
566.800,0.769504
566.900,0.769388
567.000,0.769270
567.100,0.769154
567.200,0.769039
567.300,0.768923
567.400,0.768807
567.500,0.768692
567.600,0.768580
567.700,0.768468
567.800,0.768354
567.900,0.768247
568.000,0.768140
568.100,0.768039
568.200,0.767943
568.300,0.767849
568.400,0.767760
568.500,0.767673
568.600,0.767583
568.700,0.767496
568.800,0.767407
568.900,0.767324
569.000,0.767240
569.100,0.767152
569.200,0.767070
569.300,0.766988
569.400,0.766912
569.500,0.766837
569.600,0.766763
569.700,0.766698
569.800,0.766641
569.900,0.766585
570.000,0.766535
570.100,0.766480
570.200,0.766434
570.300,0.766386
570.400,0.766338
570.500,0.766297
570.600,0.766253
570.700,0.766210
570.800,0.766171
570.900,0.766130
571.000,0.766098
571.100,0.766065
571.200,0.766039
571.300,0.766018
571.400,0.766004
571.500,0.766000
571.600,0.765993
571.700,0.765987
571.800,0.765988
571.900,0.765990
572.000,0.765987
572.100,0.765996
572.200,0.765999
572.300,0.766008
572.400,0.766023
572.500,0.766030
572.600,0.766047
572.700,0.766070
572.800,0.766093
572.900,0.766128
573.000,0.766162
573.100,0.766212
573.200,0.766262
573.300,0.766306
573.400,0.766361
573.500,0.766416
573.600,0.766467
573.700,0.766528
573.800,0.766583
573.900,0.766647
574.000,0.766715
574.100,0.766775
574.200,0.766844
574.300,0.766921
574.400,0.766998
574.500,0.767086
574.600,0.767173
574.700,0.767274
574.800,0.767377
574.900,0.767474
575.000,0.767581
575.100,0.767686
575.200,0.767789
575.300,0.767901
575.400,0.768008
575.500,0.768122
575.600,0.768242
575.700,0.768355
575.800,0.768475
575.900,0.768609
576.000,0.768733
576.100,0.768875
576.200,0.769008
576.300,0.769154
576.400,0.769302
576.500,0.769444
576.600,0.769594
576.700,0.769746
576.800,0.769890
576.900,0.770051
577.000,0.770199
577.100,0.770359
577.200,0.770523
577.300,0.770678
577.400,0.770843
577.500,0.771020
577.600,0.771185
577.700,0.771364
577.800,0.771545
577.900,0.771716
578.000,0.771899
578.100,0.772074
578.200,0.772259
578.300,0.772448
578.400,0.772625
578.500,0.772820
578.600,0.773009
578.700,0.773193
578.800,0.773387
578.900,0.773576
579.000,0.773771
579.100,0.773976
579.200,0.774168
579.300,0.774373
579.400,0.774575
579.500,0.774768
579.600,0.774976
579.700,0.775178
579.800,0.775376
579.900,0.775587
580.000,0.775784
580.100,0.775997
580.200,0.776206
580.300,0.776409
580.400,0.776622
580.500,0.776837
580.600,0.777043
580.700,0.777260
580.800,0.777477
580.900,0.777681
581.000,0.777891
581.100,0.778092
581.200,0.778306
581.300,0.778519
581.400,0.778721
581.500,0.778938
581.600,0.779152
581.700,0.779357
581.800,0.779571
581.900,0.779788
582.000,0.779995
582.100,0.780211
582.200,0.780420
582.300,0.780637
582.400,0.780855
582.500,0.781054
582.600,0.781263
582.700,0.781468
582.800,0.781665
582.900,0.781874
583.000,0.782079
583.100,0.782281
583.200,0.782487
583.300,0.782696
583.400,0.782896
583.500,0.783106
583.600,0.783306
583.700,0.783516
583.800,0.783725
583.900,0.783922
584.000,0.784125
584.100,0.784318
584.200,0.784501
584.300,0.784691
584.400,0.784882
584.500,0.785062
584.600,0.785253
584.700,0.785447
584.800,0.785628
584.900,0.785819
585.000,0.786002
585.100,0.786194
585.200,0.786387
585.300,0.786569
585.400,0.786761
585.500,0.786941
585.600,0.787110
585.700,0.787279
585.800,0.787448
585.900,0.787604
586.000,0.787772
586.100,0.787939
586.200,0.788097
586.300,0.788267
586.400,0.788426
586.500,0.788589
586.600,0.788758
586.700,0.788914
586.800,0.789083
586.900,0.789249
587.000,0.789407
587.100,0.789550
587.200,0.789698
587.300,0.789819
587.400,0.789958
587.500,0.790089
587.600,0.790215
587.700,0.790347
587.800,0.790484
587.900,0.790605
588.000,0.790741
588.100,0.790866
588.200,0.790999
588.300,0.791131
588.400,0.791255
588.500,0.791389
588.600,0.791519
588.700,0.791621
588.800,0.791733
588.900,0.791836
589.000,0.791925
589.100,0.792028
589.200,0.792131
589.300,0.792224
589.400,0.792328
589.500,0.792431
589.600,0.792524
589.700,0.792626
589.800,0.792729
589.900,0.792822
590.000,0.792923
590.100,0.793016
590.200,0.793113
590.300,0.793199
590.400,0.793277
590.500,0.793358
590.600,0.793436
590.700,0.793507
590.800,0.793589
590.900,0.793670
591.000,0.793739
591.100,0.793820
591.200,0.793899
591.300,0.793973
591.400,0.794052
591.500,0.794133
591.600,0.794202
591.700,0.794286
591.800,0.794357
591.900,0.794416
592.000,0.794482
592.100,0.794545
592.200,0.794598
592.300,0.794657
592.400,0.794724
592.500,0.794774
592.600,0.794841
592.700,0.794891
592.800,0.794958
592.900,0.795018
593.000,0.795073
593.100,0.795135
593.200,0.795201
593.300,0.795256
593.400,0.795316
593.500,0.795365
593.600,0.795404
593.700,0.795451
593.800,0.795505
593.900,0.795544
594.000,0.795595
594.100,0.795643
594.200,0.795688
594.300,0.795737
594.400,0.795788
594.500,0.795826
594.600,0.795881
594.700,0.795931
594.800,0.795973
594.900,0.796025
595.000,0.796071
595.100,0.796098
595.200,0.796142
595.300,0.796179
595.400,0.796211
595.500,0.796251
595.600,0.796292
595.700,0.796327
595.800,0.796368
595.900,0.796410
596.000,0.796441
596.100,0.796487
596.200,0.796529
596.300,0.796561
596.400,0.796603
596.500,0.796650
596.600,0.796675
596.700,0.796706
596.800,0.796741
596.900,0.796769
597.000,0.796806
597.100,0.796831
597.200,0.796869
597.300,0.796906
597.400,0.796934
597.500,0.796972
597.600,0.797010
597.700,0.797039
597.800,0.797078
597.900,0.797117
598.000,0.797145
598.100,0.797184
598.200,0.797217
598.300,0.797236
598.400,0.797269
598.500,0.797307
598.600,0.797335
598.700,0.797371
598.800,0.797409
598.900,0.797432
599.000,0.797472
599.100,0.797508
599.200,0.797537
599.300,0.797573
599.400,0.797614
599.500,0.797643
599.600,0.797684
599.700,0.797721
599.800,0.797745
599.900,0.797774
600.000,0.797813
600.100,0.797842
600.200,0.797884
600.300,0.797924
600.400,0.797960
600.500,0.798000
600.600,0.798042
600.700,0.798072
600.800,0.798115
600.900,0.798158
601.000,0.798191
601.100,0.798234
601.200,0.798279
601.300,0.798310
601.400,0.798354
601.500,0.798388
601.600,0.798430
601.700,0.798476
601.800,0.798529
601.900,0.798570
602.000,0.798618
602.100,0.798672
602.200,0.798710
602.300,0.798766
602.400,0.798815
602.500,0.798859
602.600,0.798913
602.700,0.798968
602.800,0.799011
602.900,0.799066
603.000,0.799121
603.100,0.799173
603.200,0.799226
603.300,0.799294
603.400,0.799359
603.500,0.799417
603.600,0.799480
603.700,0.799551
603.800,0.799607
603.900,0.799680
604.000,0.799749
604.100,0.799804
604.200,0.799875
604.300,0.799950
604.400,0.800009
604.500,0.800085
604.600,0.800157
604.700,0.800221
604.800,0.800309
604.900,0.800400
605.000,0.800474
605.100,0.800567
605.200,0.800658
605.300,0.800737
605.400,0.800829
605.500,0.800922
605.600,0.801008
605.700,0.801103
605.800,0.801198
605.900,0.801280
606.000,0.801381
606.100,0.801482
606.200,0.801572
606.300,0.801680
606.400,0.801804
606.500,0.801912
606.600,0.802033
606.700,0.802157
606.800,0.802272
606.900,0.802396
607.000,0.802528
607.100,0.802639
607.200,0.802770
607.300,0.802902
607.400,0.803036
607.500,0.803151
607.600,0.803288
607.700,0.803423
607.800,0.803558
607.900,0.803713
608.000,0.803879
608.100,0.804030
608.200,0.804201
608.300,0.804368
608.400,0.804527
608.500,0.804699
608.600,0.804871
608.700,0.805033
608.800,0.805209
608.900,0.805384
609.000,0.805549
609.100,0.805732
609.200,0.805915
609.300,0.806083
609.400,0.806293
609.500,0.806504
609.600,0.806713
609.700,0.806938
609.800,0.807159
609.900,0.807373
610.000,0.807597
610.100,0.807830
610.200,0.808060
610.300,0.808284
610.400,0.808518
610.500,0.808759
610.600,0.808981
610.700,0.809227
610.800,0.809469
610.900,0.809702
611.000,0.809984
611.100,0.810267
611.200,0.810547
611.300,0.810838
611.400,0.811138
611.500,0.811418
611.600,0.811720
611.700,0.812025
611.800,0.812315
611.900,0.812624
612.000,0.812936
612.100,0.813249
612.200,0.813553
612.300,0.813868
612.400,0.814194
612.500,0.814505
612.600,0.814872
612.700,0.815249
612.800,0.815613
612.900,0.815990
613.000,0.816374
613.100,0.816751
613.200,0.817140
613.300,0.817535
613.400,0.817912
613.500,0.818312
613.600,0.818716
613.700,0.819108
613.800,0.819515
613.900,0.819925
614.000,0.820345
614.100,0.820751
614.200,0.821222
614.300,0.821691
614.400,0.822150
614.500,0.822628
614.600,0.823107
614.700,0.823573
614.800,0.824058
614.900,0.824555
615.000,0.825030
615.100,0.825526
615.200,0.826024
615.300,0.826512
615.400,0.827019
615.500,0.827526
615.600,0.828046
615.700,0.828555
615.800,0.829125
615.900,0.829699
616.000,0.830260
616.100,0.830839
616.200,0.831419
616.300,0.831989
616.400,0.832579
616.500,0.833175
616.600,0.833748
616.700,0.834347
616.800,0.834949
616.900,0.835538
617.000,0.836147
617.100,0.836750
617.200,0.837368
617.300,0.837986
617.400,0.838661
617.500,0.839328
617.600,0.839990
617.700,0.840663
617.800,0.841338
617.900,0.842012
618.000,0.842692
618.100,0.843384
618.200,0.844054
618.300,0.844747
618.400,0.845442
618.500,0.846140
618.600,0.846823
618.700,0.847529
618.800,0.848231
618.900,0.848944
619.000,0.849691
619.100,0.850440
619.200,0.851176
619.300,0.851929
619.400,0.852679
619.500,0.853423
619.600,0.854177
619.700,0.854935
619.800,0.855693
619.900,0.856441
620.000,0.857205
620.100,0.857966
620.200,0.858719
620.300,0.859487
620.400,0.860252
620.500,0.861025
620.600,0.861827
620.700,0.862621
620.800,0.863405
620.900,0.864204
621.000,0.864998
621.100,0.865796
621.200,0.866577
621.300,0.867380
621.400,0.868179
621.500,0.868960
621.600,0.869766
621.700,0.870559
621.800,0.871348
621.900,0.872144
622.000,0.872942
622.100,0.873758
622.200,0.874544
622.300,0.875351
622.400,0.876146
622.500,0.876938
622.600,0.877736
622.700,0.878531
622.800,0.879314
622.900,0.880107
623.000,0.880905
623.100,0.881699
623.200,0.882481
623.300,0.883269
623.400,0.884056
623.500,0.884834
623.600,0.885622
623.700,0.886410
623.800,0.887166
623.900,0.887936
624.000,0.888702
624.100,0.889465
624.200,0.890216
624.300,0.890967
624.400,0.891731
624.500,0.892473
624.600,0.893229
624.700,0.893977
624.800,0.894714
624.900,0.895458
625.000,0.896201
625.100,0.896935
625.200,0.897671
625.300,0.898397
625.400,0.899096
625.500,0.899788
625.600,0.900481
625.700,0.901181
625.800,0.901861
625.900,0.902546
626.000,0.903229
626.100,0.903910
626.200,0.904580
626.300,0.905256
626.400,0.905929
626.500,0.906590
626.600,0.907261
626.700,0.907922
626.800,0.908574
626.900,0.909207
627.000,0.909810
627.100,0.910414
627.200,0.911006
627.300,0.911596
627.400,0.912190
627.500,0.912773
627.600,0.913360
627.700,0.913942
627.800,0.914518
627.900,0.915095
628.000,0.915668
628.100,0.916242
628.200,0.916796
628.300,0.917360
628.400,0.917927
628.500,0.918440
628.600,0.918935
628.700,0.919430
628.800,0.919918
628.900,0.920402
629.000,0.920888
629.100,0.921367
629.200,0.921844
629.300,0.922315
629.400,0.922791
629.500,0.923250
629.600,0.923721
629.700,0.924189
629.800,0.924644
629.900,0.925099
630.000,0.925555
630.100,0.925955
630.200,0.926334
630.300,0.926712
630.400,0.927094
630.500,0.927464
630.600,0.927831
630.700,0.928203
630.800,0.928568
630.900,0.928931
631.000,0.929288
631.100,0.929652
631.200,0.929999
631.300,0.930352
631.400,0.930708
631.500,0.931056
631.600,0.931400
631.700,0.931680
631.800,0.931953
631.900,0.932217
632.000,0.932484
632.100,0.932749
632.200,0.933014
632.300,0.933267
632.400,0.933528
632.500,0.933784
632.600,0.934035
632.700,0.934284
632.800,0.934534
632.900,0.934786
633.000,0.935028
633.100,0.935268
633.200,0.935512
633.300,0.935679
633.400,0.935846
633.500,0.936006
633.600,0.936169
633.700,0.936330
633.800,0.936492
633.900,0.936647
634.000,0.936796
634.100,0.936952
634.200,0.937106
634.300,0.937255
634.400,0.937404
634.500,0.937555
634.600,0.937693
634.700,0.937836
634.800,0.937974
634.900,0.938047
635.000,0.938115
635.100,0.938186
635.200,0.938254
635.300,0.938315
635.400,0.938379
635.500,0.938440
635.600,0.938503
635.700,0.938562
635.800,0.938617
635.900,0.938676
636.000,0.938734
636.100,0.938788
636.200,0.938843
636.300,0.938893
636.400,0.938933
636.500,0.938915
636.600,0.938899
636.700,0.938880
636.800,0.938856
636.900,0.938834
637.000,0.938810
637.100,0.938785
637.200,0.938763
637.300,0.938736
637.400,0.938710
637.500,0.938679
637.600,0.938650
637.700,0.938620
637.800,0.938587
637.900,0.938557
638.000,0.938510
638.100,0.938412
638.200,0.938311
638.300,0.938210
638.400,0.938114
638.500,0.938010
638.600,0.937907
638.700,0.937807
638.800,0.937702
638.900,0.937596
639.000,0.937495
639.100,0.937388
639.200,0.937280
639.300,0.937174
639.400,0.937066
639.500,0.936956
639.600,0.936834
639.700,0.936662
639.800,0.936492
639.900,0.936320
640.000,0.936146
640.100,0.935975
640.200,0.935803
640.300,0.935631
640.400,0.935458
640.500,0.935285
640.600,0.935110
640.700,0.934933
640.800,0.934758
640.900,0.934583
641.000,0.934403
641.100,0.934232
641.200,0.934032
641.300,0.933799
641.400,0.933568
641.500,0.933334
641.600,0.933100
641.700,0.932869
641.800,0.932634
641.900,0.932397
642.000,0.932167
642.100,0.931931
642.200,0.931695
642.300,0.931464
642.400,0.931227
642.500,0.930992
642.600,0.930757
642.700,0.930521
642.800,0.930269
642.900,0.929991
643.000,0.929713
643.100,0.929435
643.200,0.929158
643.300,0.928884
643.400,0.928607
643.500,0.928330
643.600,0.928053
643.700,0.927776
643.800,0.927500
643.900,0.927223
644.000,0.926949
644.100,0.926673
644.200,0.926396
644.300,0.926120
644.400,0.925835
644.500,0.925533
644.600,0.925232
644.700,0.924935
644.800,0.924635
644.900,0.924338
645.000,0.924042
645.100,0.923739
645.200,0.923443
645.300,0.923148
645.400,0.922850
645.500,0.922556
645.600,0.922262
645.700,0.921965
645.800,0.921667
645.900,0.921372
646.000,0.921071
646.100,0.920765
646.200,0.920458
646.300,0.920153
646.400,0.919846
646.500,0.919542
646.600,0.919238
646.700,0.918930
646.800,0.918627
646.900,0.918328
647.000,0.918026
647.100,0.917721
647.200,0.917420
647.300,0.917124
647.400,0.916824
647.500,0.916521
647.600,0.916224
647.700,0.915929
647.800,0.915634
647.900,0.915340
648.000,0.915046
648.100,0.914753
648.200,0.914458
648.300,0.914167
648.400,0.913876
648.500,0.913582
648.600,0.913292
648.700,0.913004
648.800,0.912715
648.900,0.912428
649.000,0.912141
649.100,0.911854
649.200,0.911580
649.300,0.911317
649.400,0.911055
649.500,0.910791
649.600,0.910530
649.700,0.910270
649.800,0.910008
649.900,0.909749
650.000,0.909490
650.100,0.909230
650.200,0.908972
650.300,0.908715
650.400,0.908453
650.500,0.908197
650.600,0.907942
650.700,0.907685
650.800,0.907467
650.900,0.907259
651.000,0.907050
651.100,0.906842
651.200,0.906637
651.300,0.906427
651.400,0.906223
651.500,0.906016
651.600,0.905812
651.700,0.905603
651.800,0.905400
651.900,0.905195
652.000,0.904988
652.100,0.904784
652.200,0.904581
652.300,0.904374
652.400,0.904232
652.500,0.904103
652.600,0.903974
652.700,0.903844
652.800,0.903715
652.900,0.903582
653.000,0.903454
653.100,0.903321
653.200,0.903191
653.300,0.903060
653.400,0.902930
653.500,0.902802
653.600,0.902668
653.700,0.902538
653.800,0.902406
653.900,0.902275
654.000,0.902228
654.100,0.902194
654.200,0.902159
654.300,0.902125
654.400,0.902090
654.500,0.902055
654.600,0.902021
654.700,0.901985
654.800,0.901949
654.900,0.901914
655.000,0.901876
655.100,0.901839
655.200,0.901801
655.300,0.901764
655.400,0.901725
655.500,0.901685
655.600,0.901753
655.700,0.901832
655.800,0.901909
655.900,0.901987
656.000,0.902060
656.100,0.902137
656.200,0.902210
656.300,0.902286
656.400,0.902361
656.500,0.902433
656.600,0.902508
656.700,0.902579
656.800,0.902654
656.900,0.902725
657.000,0.902798
657.100,0.902866
657.200,0.903062
657.300,0.903258
657.400,0.903450
657.500,0.903648
657.600,0.903843
657.700,0.904039
657.800,0.904231
657.900,0.904426
658.000,0.904622
658.100,0.904821
658.200,0.905016
658.300,0.905207
658.400,0.905403
658.500,0.905599
658.600,0.905795
658.700,0.905997
658.800,0.906305
658.900,0.906617
659.000,0.906925
659.100,0.907235
659.200,0.907546
659.300,0.907857
659.400,0.908167
659.500,0.908480
659.600,0.908793
659.700,0.909107
659.800,0.909424
659.900,0.909741
660.000,0.910057
660.100,0.910374
660.200,0.910689
660.300,0.911015
660.400,0.911426
660.500,0.911835
660.600,0.912246
660.700,0.912657
660.800,0.913073
660.900,0.913484
661.000,0.913902
661.100,0.914320
661.200,0.914740
661.300,0.915156
661.400,0.915574
661.500,0.915998
661.600,0.916419
661.700,0.916844
661.800,0.917266
661.900,0.917705
662.000,0.918184
662.100,0.918662
662.200,0.919142
662.300,0.919620
662.400,0.920104
662.500,0.920587
662.600,0.921073
662.700,0.921560
662.800,0.922052
662.900,0.922540
663.000,0.923027
663.100,0.923520
663.200,0.924013
663.300,0.924506
663.400,0.925003
663.500,0.925502
663.600,0.926010
663.700,0.926523
663.800,0.927038
663.900,0.927550
664.000,0.928065
664.100,0.928580
664.200,0.929099
664.300,0.929615
664.400,0.930135
664.500,0.930653
664.600,0.931176
664.700,0.931697
664.800,0.932220
664.900,0.932748
665.000,0.933274
665.100,0.933795
665.200,0.934299
665.300,0.934809
665.400,0.935320
665.500,0.935831
665.600,0.936342
665.700,0.936850
665.800,0.937364
665.900,0.937878
666.000,0.938392
666.100,0.938907
666.200,0.939419
666.300,0.939936
666.400,0.940452
666.500,0.940971
666.600,0.941489
666.700,0.941987
666.800,0.942464
666.900,0.942936
667.000,0.943414
667.100,0.943887
667.200,0.944365
667.300,0.944839
667.400,0.945318
667.500,0.945792
667.600,0.946272
667.700,0.946747
667.800,0.947227
667.900,0.947706
668.000,0.948183
668.100,0.948664
668.200,0.949141
668.300,0.949594
668.400,0.950026
668.500,0.950452
668.600,0.950878
668.700,0.951304
668.800,0.951731
668.900,0.952157
669.000,0.952588
669.100,0.953015
669.200,0.953441
669.300,0.953868
669.400,0.954296
669.500,0.954726
669.600,0.955154
669.700,0.955584
669.800,0.956011
669.900,0.956410
670.000,0.956778
670.100,0.957148
670.200,0.957522
670.300,0.957890
670.400,0.958264
670.500,0.958633
670.600,0.959002
670.700,0.959376
670.800,0.959744
670.900,0.960118
671.000,0.960486
671.100,0.960854
671.200,0.961228
671.300,0.961596
671.400,0.961965
671.500,0.962304
671.600,0.962617
671.700,0.962936
671.800,0.963250
671.900,0.963567
672.000,0.963881
672.100,0.964193
672.200,0.964512
672.300,0.964825
672.400,0.965142
672.500,0.965455
672.600,0.965767
672.700,0.966085
672.800,0.966398
672.900,0.966715
673.000,0.967028
673.100,0.967311
673.200,0.967572
673.300,0.967839
673.400,0.968100
673.500,0.968367
673.600,0.968634
673.700,0.968894
673.800,0.969161
673.900,0.969421
674.000,0.969688
674.100,0.969954
674.200,0.970214
674.300,0.970481
674.400,0.970741
674.500,0.971007
674.600,0.971273
674.700,0.971502
674.800,0.971722
674.900,0.971942
675.000,0.972166
675.100,0.972386
675.200,0.972605
675.300,0.972824
675.400,0.973048
675.500,0.973267
675.600,0.973486
675.700,0.973705
675.800,0.973929
675.900,0.974148
676.000,0.974366
676.100,0.974585
676.200,0.974809
676.300,0.974997
676.400,0.975180
676.500,0.975362
676.600,0.975544
676.700,0.975727
676.800,0.975909
676.900,0.976091
677.000,0.976273
677.100,0.976455
677.200,0.976638
677.300,0.976819
677.400,0.977001
677.500,0.977184
677.600,0.977365
677.700,0.977553
677.800,0.977735
677.900,0.977886
678.000,0.978037
678.100,0.978187
678.200,0.978337
678.300,0.978488
678.400,0.978639
678.500,0.978789
678.600,0.978940
678.700,0.979090
678.800,0.979241
678.900,0.979391
679.000,0.979542
679.100,0.979692
679.200,0.979844
679.300,0.979994
679.400,0.980145
679.500,0.980270
679.600,0.980396
679.700,0.980520
679.800,0.980645
679.900,0.980769
680.000,0.980894
680.100,0.981018
680.200,0.981143
680.300,0.981268
680.400,0.981393
680.500,0.981517
680.600,0.981642
680.700,0.981766
680.800,0.981891
680.900,0.982015
681.000,0.982140
681.100,0.982243
681.200,0.982343
681.300,0.982446
681.400,0.982549
681.500,0.982652
681.600,0.982756
681.700,0.982854
681.800,0.982957
681.900,0.983060
682.000,0.983164
682.100,0.983263
682.200,0.983366
682.300,0.983470
682.400,0.983573
682.500,0.983677
682.600,0.983775
682.700,0.983856
682.800,0.983944
682.900,0.984028
683.000,0.984109
683.100,0.984196
683.200,0.984278
683.300,0.984366
683.400,0.984448
683.500,0.984530
683.600,0.984617
683.700,0.984701
683.800,0.984788
683.900,0.984869
684.000,0.984951
684.100,0.985039
684.200,0.985116
684.300,0.985187
684.400,0.985253
684.500,0.985325
684.600,0.985392
684.700,0.985462
684.800,0.985528
684.900,0.985599
685.000,0.985666
685.100,0.985731
685.200,0.985802
685.300,0.985868
685.400,0.985942
685.500,0.986011
685.600,0.986082
685.700,0.986148
685.800,0.986215
685.900,0.986270
686.000,0.986324
686.100,0.986379
686.200,0.986435
686.300,0.986491
686.400,0.986546
686.500,0.986600
686.600,0.986656
686.700,0.986710
686.800,0.986765
686.900,0.986820
687.000,0.986874
687.100,0.986932
687.200,0.986986
687.300,0.987041
687.400,0.987090
687.500,0.987135
687.600,0.987178
687.700,0.987222
687.800,0.987265
687.900,0.987310
688.000,0.987355
688.100,0.987399
688.200,0.987442
688.300,0.987487
688.400,0.987530
688.500,0.987573
688.600,0.987617
688.700,0.987662
688.800,0.987707
688.900,0.987750
689.000,0.987788
689.100,0.987826
689.200,0.987859
689.300,0.987892
689.400,0.987924
689.500,0.987955
689.600,0.987995
689.700,0.988028
689.800,0.988060
689.900,0.988092
690.000,0.988131
690.100,0.988163
690.200,0.988195
690.300,0.988227
690.400,0.988266
690.500,0.988299
690.600,0.988326
690.700,0.988352
690.800,0.988378
690.900,0.988406
691.000,0.988432
691.100,0.988458
691.200,0.988484
691.300,0.988506
691.400,0.988534
691.500,0.988559
691.600,0.988585
691.700,0.988613
691.800,0.988639
691.900,0.988658
692.000,0.988685
692.100,0.988712
692.200,0.988734
692.300,0.988754
692.400,0.988774
692.500,0.988788
692.600,0.988809
692.700,0.988823
692.800,0.988844
692.900,0.988863
693.000,0.988878
693.100,0.988900
693.200,0.988914
693.300,0.988933
693.400,0.988955
693.500,0.988968
693.600,0.988988
693.700,0.989001
693.800,0.989015
693.900,0.989033
694.000,0.989046
694.100,0.989054
694.200,0.989068
694.300,0.989076
694.400,0.989090
694.500,0.989097
694.600,0.989111
694.700,0.989126
694.800,0.989135
694.900,0.989148
695.000,0.989155
695.100,0.989170
695.200,0.989184
695.300,0.989191
695.400,0.989197
695.500,0.989205
695.600,0.989216
695.700,0.989216
695.800,0.989223
695.900,0.989230
696.000,0.989232
696.100,0.989238
696.200,0.989246
696.300,0.989252
696.400,0.989254
696.500,0.989262
696.600,0.989269
696.700,0.989268
696.800,0.989275
696.900,0.989283
697.000,0.989284
697.100,0.989283
697.200,0.989284
697.300,0.989288
697.400,0.989287
697.500,0.989287
697.600,0.989287
697.700,0.989287
697.800,0.989288
697.900,0.989288
698.000,0.989287
698.100,0.989280
698.200,0.989283
698.300,0.989283
698.400,0.989282
698.500,0.989281
698.600,0.989283
698.700,0.989275
698.800,0.989268
698.900,0.989260
699.000,0.989262
699.100,0.989256
699.200,0.989248
699.300,0.989247
699.400,0.989239
699.500,0.989233
699.600,0.989225
699.700,0.989224
699.800,0.989215
699.900,0.989211
700.000,0.989203
700.100,0.989201
700.200,0.989186
700.300,0.989178
700.400,0.989172
700.500,0.989163
700.600,0.989154
700.700,0.989141
700.800,0.989134
700.900,0.989126
701.000,0.989116
701.100,0.989100
701.200,0.989091
701.300,0.989086
701.400,0.989077
701.500,0.989068
701.600,0.989053
701.700,0.989047
701.800,0.989030
701.900,0.989023
702.000,0.989006
702.100,0.988992
702.200,0.988978
702.300,0.988968
702.400,0.988951
702.500,0.988936
702.600,0.988922
702.700,0.988912
702.800,0.988897
702.900,0.988879
703.000,0.988871
703.100,0.988856
703.200,0.988838
703.300,0.988820
703.400,0.988805
703.500,0.988790
703.600,0.988774
703.700,0.988757
703.800,0.988739
703.900,0.988726
704.000,0.988707
704.100,0.988682
704.200,0.988666
704.300,0.988647
704.400,0.988631
704.500,0.988615
704.600,0.988596
704.700,0.988577
704.800,0.988563
704.900,0.988536
705.000,0.988518
705.100,0.988493
705.200,0.988477
705.300,0.988450
705.400,0.988433
705.500,0.988406
705.600,0.988386
705.700,0.988372
705.800,0.988344
705.900,0.988324
706.000,0.988299
706.100,0.988281
706.200,0.988253
706.300,0.988235
706.400,0.988206
706.500,0.988186
706.600,0.988163
706.700,0.988135
706.800,0.988106
706.900,0.988080
707.000,0.988063
707.100,0.988033
707.200,0.988007
707.300,0.987978
707.400,0.987948
707.500,0.987933
707.600,0.987902
707.700,0.987872
707.800,0.987845
707.900,0.987818
708.000,0.987799
708.100,0.987768
708.200,0.987730
708.300,0.987702
708.400,0.987675
708.500,0.987645
708.600,0.987616
708.700,0.987586
708.800,0.987557
708.900,0.987529
709.000,0.987498
709.100,0.987456
709.200,0.987429
709.300,0.987399
709.400,0.987367
709.500,0.987339
709.600,0.987305
709.700,0.987276
709.800,0.987239
709.900,0.987207
710.000,0.987175
710.100,0.987136
710.200,0.987106
710.300,0.987073
710.400,0.987044
710.500,0.987002
710.600,0.986967
710.700,0.986942
710.800,0.986898
710.900,0.986865
711.000,0.986834
711.100,0.986793
711.200,0.986759
711.300,0.986729
711.400,0.986685
711.500,0.986651
711.600,0.986613
711.700,0.986570
711.800,0.986534
711.900,0.986493
712.000,0.986462
712.100,0.986416
712.200,0.986384
712.300,0.986339
712.400,0.986303
712.500,0.986264
712.600,0.986218
712.700,0.986186
712.800,0.986139
712.900,0.986105
713.000,0.986063
713.100,0.986016
713.200,0.985970
713.300,0.985937
713.400,0.985893
713.500,0.985846
713.600,0.985810
713.700,0.985763
713.800,0.985720
713.900,0.985674
714.000,0.985636
714.100,0.985588
714.200,0.985543
714.300,0.985498
714.400,0.985458
714.500,0.985413
714.600,0.985364
714.700,0.985314
714.800,0.985273
714.900,0.985224
715.000,0.985174
715.100,0.985137
715.200,0.985092
715.300,0.985041
715.400,0.984993
715.500,0.984942
715.600,0.984891
715.700,0.984848
715.800,0.984796
715.900,0.984754
716.000,0.984706
716.100,0.984658
716.200,0.984605
716.300,0.984557
716.400,0.984504
716.500,0.984441
716.600,0.984396
716.700,0.984344
716.800,0.984289
716.900,0.984239
717.000,0.984185
717.100,0.984135
717.200,0.984085
717.300,0.984030
717.400,0.983979
717.500,0.983928
717.600,0.983872
717.700,0.983820
717.800,0.983756
717.900,0.983699
718.000,0.983653
718.100,0.983595
718.200,0.983540
718.300,0.983487
718.400,0.983419
718.500,0.983366
718.600,0.983312
718.700,0.983255
718.800,0.983196
718.900,0.983137
719.000,0.983077
719.100,0.983019
719.200,0.982964
719.300,0.982905
719.400,0.982839
719.500,0.982785
719.600,0.982723
719.700,0.982652
719.800,0.982597
719.900,0.982541
720.000,0.982468
720.100,0.982410
720.200,0.982348
720.300,0.982293
720.400,0.982223
720.500,0.982161
720.600,0.982098
720.700,0.982027
720.800,0.981969
720.900,0.981907
721.000,0.981836
721.100,0.981772
721.200,0.981708
721.300,0.981643
721.400,0.981578
721.500,0.981501
721.600,0.981441
721.700,0.981381
721.800,0.981308
721.900,0.981241
722.000,0.981175
722.100,0.981101
722.200,0.981041
722.300,0.980960
722.400,0.980898
722.500,0.980831
722.600,0.980749
722.700,0.980693
722.800,0.980613
722.900,0.980544
723.000,0.980467
723.100,0.980405
723.200,0.980323
723.300,0.980259
723.400,0.980174
723.500,0.980102
723.600,0.980032
723.700,0.979960
723.800,0.979876
723.900,0.979809
724.000,0.979724
724.100,0.979646
724.200,0.979572
724.300,0.979487
724.400,0.979413
724.500,0.979325
724.600,0.979260
724.700,0.979171
724.800,0.979096
724.900,0.979007
725.000,0.978926
725.100,0.978850
725.200,0.978760
725.300,0.978682
725.400,0.978593
725.500,0.978523
725.600,0.978430
725.700,0.978340
725.800,0.978262
725.900,0.978170
726.000,0.978098
726.100,0.978003
726.200,0.977911
726.300,0.977831
726.400,0.977737
726.500,0.977649
726.600,0.977570
726.700,0.977474
726.800,0.977398
726.900,0.977311
727.000,0.977212
727.100,0.977130
727.200,0.977033
727.300,0.976948
727.400,0.976860
727.500,0.976761
727.600,0.976675
727.700,0.976577
727.800,0.976476
727.900,0.976400
728.000,0.976299
728.100,0.976210
728.200,0.976110
728.300,0.976008
728.400,0.975928
728.500,0.975826
728.600,0.975722
728.700,0.975630
728.800,0.975527
728.900,0.975445
729.000,0.975341
729.100,0.975237
729.200,0.975144
729.300,0.975046
729.400,0.974942
729.500,0.974846
729.600,0.974739
729.700,0.974645
729.800,0.974545
729.900,0.974436
730.000,0.974341
730.100,0.974227
730.200,0.974119
730.300,0.974028
730.400,0.973919
730.500,0.973821
730.600,0.973707
730.700,0.973596
730.800,0.973507
730.900,0.973393
731.000,0.973276
731.100,0.973175
731.200,0.973059
731.300,0.972953
731.400,0.972853
731.500,0.972735
731.600,0.972617
731.700,0.972513
731.800,0.972404
731.900,0.972301
732.000,0.972180
732.100,0.972059
732.200,0.971965
732.300,0.971848
732.400,0.971730
732.500,0.971623
732.600,0.971497
732.700,0.971385
732.800,0.971275
732.900,0.971151
733.000,0.971026
733.100,0.970914
733.200,0.970797
733.300,0.970670
733.400,0.970559
733.500,0.970431
733.600,0.970300
733.700,0.970198
733.800,0.970068
733.900,0.969938
734.000,0.969820
734.100,0.969691
734.200,0.969570
734.300,0.969451
734.400,0.969319
734.500,0.969182
734.600,0.969066
734.700,0.968941
734.800,0.968803
734.900,0.968681
735.000,0.968546
735.100,0.968404
735.200,0.968296
735.300,0.968156
735.400,0.968015
735.500,0.967893
735.600,0.967763
735.700,0.967620
735.800,0.967495
735.900,0.967348
736.000,0.967205
736.100,0.967089
736.200,0.966942
736.300,0.966797
736.400,0.966668
736.500,0.966519
736.600,0.966382
736.700,0.966251
736.800,0.966100
736.900,0.965950
737.000,0.965817
737.100,0.965677
737.200,0.965528
737.300,0.965390
737.400,0.965236
737.500,0.965081
737.600,0.964937
737.700,0.964799
737.800,0.964642
737.900,0.964491
738.000,0.964350
738.100,0.964205
738.200,0.964042
738.300,0.963903
738.400,0.963740
738.500,0.963577
738.600,0.963432
738.700,0.963283
738.800,0.963117
738.900,0.962954
739.000,0.962802
739.100,0.962649
739.200,0.962483
739.300,0.962329
739.400,0.962161
739.500,0.961992
739.600,0.961851
739.700,0.961677
739.800,0.961506
739.900,0.961330
740.000,0.961172
740.100,0.961012
740.200,0.960837
740.300,0.960680
740.400,0.960500
740.500,0.960318
740.600,0.960156
740.700,0.959996
740.800,0.959811
740.900,0.959629
741.000,0.959466
741.100,0.959296
741.200,0.959111
741.300,0.958921
741.400,0.958754
741.500,0.958563
741.600,0.958391
741.700,0.958222
741.800,0.958027
741.900,0.957838
742.000,0.957645
742.100,0.957487
742.200,0.957295
742.300,0.957094
742.400,0.956914
742.500,0.956719
742.600,0.956538
742.700,0.956337
742.800,0.956157
742.900,0.955954
743.000,0.955749
743.100,0.955581
743.200,0.955379
743.300,0.955171
743.400,0.954978
743.500,0.954786
743.600,0.954595
743.700,0.954386
743.800,0.954169
743.900,0.953980
744.000,0.953764
744.100,0.953568
744.200,0.953371
744.300,0.953152
744.400,0.952934
744.500,0.952712
744.600,0.952533
744.700,0.952308
744.800,0.952091
744.900,0.951860
745.000,0.951658
745.100,0.951454
745.200,0.951224
745.300,0.950995
745.400,0.950784
745.500,0.950554
745.600,0.950344
745.700,0.950102
745.800,0.949896
745.900,0.949655
746.000,0.949413
746.100,0.949202
746.200,0.948981
746.300,0.948735
746.400,0.948497
746.500,0.948261
746.600,0.948069
746.700,0.947813
746.800,0.947569
746.900,0.947318
747.000,0.947087
747.100,0.946859
747.200,0.946624
747.300,0.946367
747.400,0.946131
747.500,0.945871
747.600,0.945642
747.700,0.945375
747.800,0.945157
747.900,0.944892
748.000,0.944625
748.100,0.944384
748.200,0.944145
748.300,0.943874
748.400,0.943597
748.500,0.943343
748.600,0.943119
748.700,0.942847
748.800,0.942569
748.900,0.942288
749.000,0.942031
749.100,0.941776
749.200,0.941511
749.300,0.941223
749.400,0.940939
749.500,0.940670
749.600,0.940412
749.700,0.940123
749.800,0.939844
749.900,0.939572
750.000,0.939278
750.100,0.939007
750.200,0.938704
750.300,0.938432
750.400,0.938131
750.500,0.937839
750.600,0.937565
750.700,0.937259
750.800,0.936978
750.900,0.936662
751.000,0.936350
751.100,0.936035
751.200,0.935792
751.300,0.935474
751.400,0.935154
751.500,0.934832
751.600,0.934502
751.700,0.934238
751.800,0.933928
751.900,0.933592
752.000,0.933260
752.100,0.932956
752.200,0.932654
752.300,0.932310
752.400,0.931970
752.500,0.931653
752.600,0.931332
752.700,0.931022
752.800,0.930673
752.900,0.930328
753.000,0.929977
753.100,0.929652
753.200,0.929350
753.300,0.928993
753.400,0.928631
753.500,0.928297
753.600,0.927939
753.700,0.927602
753.800,0.927257
753.900,0.926883
754.000,0.926541
754.100,0.926163
754.200,0.925822
754.300,0.925448
754.400,0.925055
754.500,0.924735
754.600,0.924345
754.700,0.923945
754.800,0.923600
754.900,0.923202
755.000,0.922851
755.100,0.922441
755.200,0.922065
755.300,0.921699
755.400,0.921298
755.500,0.920918
755.600,0.920502
755.700,0.920093
755.800,0.919737
755.900,0.919323
756.000,0.918906
756.100,0.918510
756.200,0.918088
756.300,0.917698
756.400,0.917271
756.500,0.916861
756.600,0.916452
756.700,0.916016
756.800,0.915614
756.900,0.915172
757.000,0.914727
757.100,0.914312
757.200,0.913875
757.300,0.913460
757.400,0.913012
757.500,0.912544
757.600,0.912081
757.700,0.911660
757.800,0.911203
757.900,0.910773
758.000,0.910307
758.100,0.909829
758.200,0.909376
758.300,0.908888
758.400,0.908453
758.500,0.907995
758.600,0.907491
758.700,0.907003
758.800,0.906540
758.900,0.906069
759.000,0.905571
759.100,0.905060
759.200,0.904579
759.300,0.904051
759.400,0.903625
759.500,0.903110
759.600,0.902572
759.700,0.902049
759.800,0.901538
759.900,0.901009
760.000,0.900564
760.100,0.900018
760.200,0.899478
760.300,0.898914
760.400,0.898352
760.500,0.897877
760.600,0.897363
760.700,0.896783
760.800,0.896234
760.900,0.895656
761.000,0.895138
761.100,0.894564
761.200,0.894042
761.300,0.893460
761.400,0.892851
761.500,0.892326
761.600,0.891732
761.700,0.891110
761.800,0.890577
761.900,0.889959
762.000,0.889347
762.100,0.888788
762.200,0.888157
762.300,0.887548
762.400,0.886895
762.500,0.886333
762.600,0.885767
762.700,0.885129
762.800,0.884470
762.900,0.883807
763.000,0.883151
763.100,0.882612
763.200,0.881964
763.300,0.881294
763.400,0.880620
763.500,0.879927
763.600,0.879323
763.700,0.878635
763.800,0.878003
763.900,0.877308
764.000,0.876605
764.100,0.875913
764.200,0.875252
764.300,0.874550
764.400,0.873826
764.500,0.873161
764.600,0.872430
764.700,0.871773
764.800,0.871046
764.900,0.870281
765.000,0.869544
765.100,0.868768
765.200,0.868171
765.300,0.867398
765.400,0.866640
765.500,0.865856
765.600,0.865055
765.700,0.864259
765.800,0.863600
765.900,0.862828
766.000,0.862035
766.100,0.861201
766.200,0.860396
766.300,0.859642
766.400,0.858805
766.500,0.858015
766.600,0.857149
766.700,0.856366
766.800,0.855584
766.900,0.854737
767.000,0.853845
767.100,0.852985
767.200,0.852153
767.300,0.851263
767.400,0.850462
767.500,0.849613
767.600,0.848721
767.700,0.847781
767.800,0.846910
767.900,0.846103
768.000,0.845166
768.100,0.844216
768.200,0.843282
768.300,0.842398
768.400,0.841517
768.500,0.840599
768.600,0.839637
768.700,0.838649
768.800,0.837628
768.900,0.836644
769.000,0.835767
769.100,0.834748
769.200,0.833837
769.300,0.832823
769.400,0.831754
769.500,0.830844
769.600,0.829807
769.700,0.828761
769.800,0.827725
769.900,0.826636
770.000,0.825691
770.100,0.824651
770.200,0.823565
770.300,0.822470
770.400,0.821367
770.500,0.820272
770.600,0.819283
770.700,0.818177
770.800,0.817017
770.900,0.815840
771.000,0.814747
771.100,0.813719
771.200,0.812563
771.300,0.811381
771.400,0.810189
771.500,0.808963
771.600,0.807777
771.700,0.806700
771.800,0.805513
771.900,0.804249
772.000,0.803065
772.100,0.801839
772.200,0.800693
772.300,0.799416
772.400,0.798154
772.500,0.796899
772.600,0.795563
772.700,0.794399
772.800,0.793105
772.900,0.791739
773.000,0.790483
773.100,0.789122
773.200,0.787795
773.300,0.786547
773.400,0.785154
773.500,0.783786
773.600,0.782371
773.700,0.780943
773.800,0.779720
773.900,0.778271
774.000,0.776819
774.100,0.775446
774.200,0.773962
774.300,0.772482
774.400,0.771151
774.500,0.769671
774.600,0.768139
774.700,0.766642
774.800,0.765084
774.900,0.763668
775.000,0.762160
775.100,0.760614
775.200,0.759007
775.300,0.757469
775.400,0.755918
775.500,0.754467
775.600,0.752818
775.700,0.751179
775.800,0.749543
775.900,0.747808
776.000,0.746343
776.100,0.744651
776.200,0.742926
776.300,0.741217
776.400,0.739484
776.500,0.738003
776.600,0.736254
776.700,0.734480
776.800,0.732702
776.900,0.730875
777.000,0.729105
777.100,0.727457
777.200,0.725534
777.300,0.723774
777.400,0.721858
777.500,0.719938
777.600,0.718315
777.700,0.716405
777.800,0.714427
777.900,0.712433
778.000,0.710610
778.100,0.708583
778.200,0.706838
778.300,0.704834
778.400,0.702855
778.500,0.700776
778.600,0.698710
778.700,0.696949
778.800,0.694808
778.900,0.692705
779.000,0.690586
779.100,0.688447
779.200,0.686293
779.300,0.684376
779.400,0.682143
779.500,0.680066
779.600,0.677843
779.700,0.675603
779.800,0.673618
779.900,0.671343
780.000,0.669036
780.100,0.666675
780.200,0.664451
780.300,0.662088
780.400,0.659962
780.500,0.657627
780.600,0.655216
780.700,0.652793
780.800,0.650283
780.900,0.648236
781.000,0.645704
781.100,0.643189
781.200,0.640669
781.300,0.638279
781.400,0.635704
781.500,0.633443
781.600,0.630901
781.700,0.628288
781.800,0.625705
781.900,0.622974
782.000,0.620354
782.100,0.618045
782.200,0.615326
782.300,0.612587
782.400,0.609886
782.500,0.607086
782.600,0.604631
782.700,0.601808
782.800,0.599084
782.900,0.596158
783.000,0.593331
783.100,0.590402
783.200,0.587897
783.300,0.584946
783.400,0.581972
783.500,0.579102
783.600,0.576085
783.700,0.573517
783.800,0.570522
783.900,0.567502
784.000,0.564312
784.100,0.561251
784.200,0.558163
784.300,0.555386
784.400,0.552261
784.500,0.549046
784.600,0.545869
784.700,0.542677
784.800,0.539733
784.900,0.536498
785.000,0.533304
785.100,0.530025
785.200,0.526580
785.300,0.523318
785.400,0.520399
785.500,0.516887
785.600,0.513498
785.700,0.510148
785.800,0.506641
785.900,0.503109
786.000,0.500076
786.100,0.496564
786.200,0.492966
786.300,0.489423
786.400,0.485944
786.500,0.482816
786.600,0.479132
786.700,0.475504
786.800,0.471930
786.900,0.468258
787.000,0.464565
787.100,0.461166
787.200,0.457492
787.300,0.453737
787.400,0.449880
787.500,0.446059
787.600,0.442731
787.700,0.438812
787.800,0.435065
787.900,0.431162
788.000,0.427182
788.100,0.423265
788.200,0.419835
788.300,0.415940
788.400,0.411995
788.500,0.408005
788.600,0.403964
788.700,0.399850
788.800,0.396325
788.900,0.392379
789.000,0.388269
789.100,0.384174
789.200,0.379971
789.300,0.376286
789.400,0.372315
789.500,0.368158
789.600,0.363895
789.700,0.359880
789.800,0.355678
789.900,0.352006
790.000,0.347716
790.100,0.343527
790.200,0.339274
790.300,0.335040
790.400,0.330765
790.500,0.327081
790.600,0.322816
790.700,0.318511
790.800,0.314245
790.900,0.309953
791.000,0.306085
791.100,0.301872
791.200,0.297482
791.300,0.293256
791.400,0.288901
791.500,0.284542
791.600,0.280818
791.700,0.276452
791.800,0.272208
791.900,0.267786
792.000,0.263540
792.100,0.259168
792.200,0.255395
792.300,0.251066
792.400,0.246699
792.500,0.242367
792.600,0.238008
792.700,0.234380
792.800,0.230062
792.900,0.225720
793.000,0.221544
793.100,0.217218
793.200,0.212933
793.300,0.209185
793.400,0.205045
793.500,0.200671
793.600,0.196524
793.700,0.192270
793.800,0.188092
793.900,0.184418
794.000,0.180332
794.100,0.176083
794.200,0.172035
794.300,0.168008
794.400,0.164332
794.500,0.160371
794.600,0.156292
794.700,0.152270
794.800,0.148449
794.900,0.144472
795.000,0.141132
795.100,0.137218
795.200,0.133325
795.300,0.129558
795.400,0.125741
795.500,0.121931
795.600,0.118773
795.700,0.115059
795.800,0.111357
795.900,0.107882
796.000,0.104300
796.100,0.101186
796.200,0.097746
796.300,0.094286
796.400,0.090933
796.500,0.087528
796.600,0.084268
796.700,0.081498
796.800,0.078234
796.900,0.075114
797.000,0.071979
797.100,0.068968
797.200,0.065917
797.300,0.063335
797.400,0.060545
797.500,0.057740
797.600,0.054852
797.700,0.052165
797.800,0.049539
797.900,0.047319
798.000,0.044730
798.100,0.042279
798.200,0.039890
798.300,0.037515
798.400,0.035492
798.500,0.033340
798.600,0.031159
798.700,0.029093
798.800,0.027036
798.900,0.025063
799.000,0.023496
799.100,0.021699
799.200,0.019936
799.300,0.018277
799.400,0.016731
799.500,0.015189
799.600,0.013938
799.700,0.012526
799.800,0.011260
799.900,0.010013
800.000,0.008861
800.100,0.007792
800.200,0.006931
800.300,0.006004
800.400,0.005146
800.500,0.004357
800.600,0.003678
800.700,0.003051
800.800,0.002568
800.900,0.002096
801.000,0.001710
801.100,0.001378
801.200,0.001140
801.300,0.000997
801.400,0.000905
801.500,0.000881
801.600,0.000944
801.700,0.001080
801.800,0.001294
801.900,0.001544
802.000,0.001906
802.100,0.002344
802.200,0.002852
802.300,0.003442
802.400,0.004108
802.500,0.004744
802.600,0.005545
802.700,0.006425
802.800,0.007380
802.900,0.008403
803.000,0.009478
803.100,0.010512
803.200,0.011717
803.300,0.013019
803.400,0.014425
803.500,0.015836
803.600,0.017349
803.700,0.018745
803.800,0.020347
803.900,0.022054
804.000,0.023769
804.100,0.025604
804.200,0.027239
804.300,0.029146
804.400,0.031202
804.500,0.033229
804.600,0.035365
804.700,0.037561
804.800,0.039429
804.900,0.041731
805.000,0.044033
805.100,0.046446
805.200,0.048969
805.300,0.051431
805.400,0.053569
805.500,0.056113
805.600,0.058837
805.700,0.061489
805.800,0.064252
805.900,0.066910
806.000,0.069432
806.100,0.072258
806.200,0.075196
806.300,0.078243
806.400,0.081103
806.500,0.084167
806.600,0.086747
806.700,0.089951
806.800,0.092952
806.900,0.096161
807.000,0.099328
807.100,0.102678
807.200,0.105351
807.300,0.108690
807.400,0.111981
807.500,0.115351
807.600,0.118672
807.700,0.122129
807.800,0.124940
807.900,0.128522
808.000,0.131969
808.100,0.135415
808.200,0.138908
808.300,0.142586
808.400,0.145508
808.500,0.149147
808.600,0.152685
808.700,0.156239
808.800,0.159931
808.900,0.162924
809.000,0.166727
809.100,0.170261
809.200,0.174012
809.300,0.177687
809.400,0.181430
809.500,0.184601
809.600,0.188191
809.700,0.191998
809.800,0.195763
809.900,0.199470
810.000,0.203209
810.100,0.206513
810.200,0.210230
810.300,0.214078
810.400,0.217720
810.500,0.221484
810.600,0.225427
810.700,0.228541
810.800,0.232405
810.900,0.236129
811.000,0.239867
811.100,0.243732
811.200,0.247385
811.300,0.250793
811.400,0.254562
811.500,0.258302
811.600,0.262066
811.700,0.265791
811.800,0.269521
811.900,0.272737
812.000,0.276314
812.100,0.280230
812.200,0.283848
812.300,0.287578
812.400,0.291276
812.500,0.294426
812.600,0.298135
812.700,0.301811
812.800,0.305505
812.900,0.309154
813.000,0.312863
813.100,0.315889
813.200,0.319546
813.300,0.323249
813.400,0.326771
813.500,0.330397
813.600,0.334067
813.700,0.337154
813.800,0.340634
813.900,0.344216
814.000,0.347840
814.100,0.351224
814.200,0.354768
814.300,0.357769
814.400,0.361366
814.500,0.364762
814.600,0.368342
814.700,0.371711
814.800,0.375143
814.900,0.378099
815.000,0.381514
815.100,0.384830
815.200,0.388251
815.300,0.391539
815.400,0.394896
815.500,0.397777
815.600,0.401096
815.700,0.404432
815.800,0.407730
815.900,0.411003
816.000,0.414292
816.100,0.416991
816.200,0.420229
816.300,0.423479
816.400,0.426604
816.500,0.429714
816.600,0.432989
816.700,0.435678
816.800,0.438742
816.900,0.441791
817.000,0.445002
817.100,0.448086
817.200,0.451086
817.300,0.453724
817.400,0.456629
817.500,0.459726
817.600,0.462664
817.700,0.465682
817.800,0.468588
817.900,0.471186
818.000,0.474061
818.100,0.477015
818.200,0.479921
818.300,0.482748
818.400,0.485559
818.500,0.487943
818.600,0.490877
818.700,0.493641
818.800,0.496389
818.900,0.499121
819.000,0.501898
819.100,0.504264
819.200,0.507038
819.300,0.509708
819.400,0.512421
819.500,0.514993
819.600,0.517615
819.700,0.519918
819.800,0.522568
819.900,0.525211
820.000,0.527771
820.100,0.530316
820.200,0.532902
820.300,0.535122
820.400,0.537622
820.500,0.540162
820.600,0.542566
820.700,0.545083
820.800,0.547521
820.900,0.549715
821.000,0.552124
821.100,0.554518
821.200,0.556897
821.300,0.559314
821.400,0.561663
821.500,0.563647
821.600,0.565969
821.700,0.568323
821.800,0.570615
821.900,0.572892
822.000,0.575155
822.100,0.577115
822.200,0.579351
822.300,0.581572
822.400,0.583779
822.500,0.586021
822.600,0.588272
822.700,0.590111
822.800,0.592200
822.900,0.594386
823.000,0.596511
823.100,0.598676
823.200,0.600819
823.300,0.602588
823.400,0.604660
823.500,0.606718
823.600,0.608807
823.700,0.610838
823.800,0.612856
823.900,0.614799
824.000,0.616534
824.100,0.618515
824.200,0.620482
824.300,0.622437
824.400,0.624421
824.500,0.626350
824.600,0.627977
824.700,0.629883
824.800,0.631817
824.900,0.633638
825.000,0.635506
825.100,0.637362
825.200,0.638905
825.300,0.640739
825.400,0.642561
825.500,0.644410
825.600,0.646208
825.700,0.647994
825.800,0.649499
825.900,0.651302
826.000,0.652996
826.100,0.654737
826.200,0.656466
826.300,0.658222
826.400,0.659625
826.500,0.661323
826.600,0.662952
826.700,0.664664
826.800,0.666329
826.900,0.667982
827.000,0.669376
827.100,0.670988
827.200,0.672611
827.300,0.674223
827.400,0.675824
827.500,0.677450
827.600,0.678737
827.700,0.680309
827.800,0.681815
827.900,0.683367
828.000,0.684761
828.100,0.686293
828.200,0.687583
828.300,0.689042
828.400,0.690546
828.500,0.691936
828.600,0.693421
828.700,0.694896
828.800,0.696308
828.900,0.697543
829.000,0.698889
829.100,0.700290
829.200,0.701667
829.300,0.703088
829.400,0.704500
829.500,0.705636
829.600,0.706985
829.700,0.708319
829.800,0.709696
829.900,0.711065
830.000,0.712373
830.100,0.713437
830.200,0.714730
830.300,0.716066
830.400,0.717393
830.500,0.718661
830.600,0.719927
830.700,0.720973
830.800,0.722269
830.900,0.723513
831.000,0.724742
831.100,0.726013
831.200,0.727183
831.300,0.728213
831.400,0.729462
831.500,0.730612
831.600,0.731845
831.700,0.733022
831.800,0.734198
831.900,0.735191
832.000,0.736347
832.100,0.737503
832.200,0.738644
832.300,0.739826
832.400,0.740881
832.500,0.742049
832.600,0.743032
832.700,0.744099
832.800,0.745246
832.900,0.746339
833.000,0.747404
833.100,0.748530
833.200,0.749431
833.300,0.750507
833.400,0.751567
833.500,0.752638
833.600,0.753731
833.700,0.754735
833.800,0.755649
833.900,0.756613
834.000,0.757681
834.100,0.758743
834.200,0.759717
834.300,0.760738
834.400,0.761575
834.500,0.762577
834.600,0.763609
834.700,0.764527
834.800,0.765546
834.900,0.766514
835.000,0.767487
835.100,0.768307
835.200,0.769225
835.300,0.770215
835.400,0.771155
835.500,0.772074
835.600,0.773003
835.700,0.773788
835.800,0.774750
835.900,0.775605
836.000,0.776555
836.100,0.777426
836.200,0.778365
836.300,0.779098
836.400,0.779986
836.500,0.780878
836.600,0.781730
836.700,0.782644
836.800,0.783521
836.900,0.784237
837.000,0.785105
837.100,0.785957
837.200,0.786790
837.300,0.787643
837.400,0.788480
837.500,0.789323
837.600,0.789993
837.700,0.790827
837.800,0.791686
837.900,0.792447
838.000,0.793296
838.100,0.794071
838.200,0.794758
838.300,0.795565
838.400,0.796356
838.500,0.797131
838.600,0.797913
838.700,0.798702
838.800,0.799327
838.900,0.800107
839.000,0.800911
839.100,0.801622
839.200,0.802417
839.300,0.803142
839.400,0.803784
839.500,0.804540
839.600,0.805279
839.700,0.806005
839.800,0.806737
839.900,0.807455
840.000,0.808215
840.100,0.808790
840.200,0.809497
840.300,0.810209
840.400,0.810908
840.500,0.811623
840.600,0.812323
840.700,0.812896
840.800,0.813589
840.900,0.814270
841.000,0.814966
841.100,0.815647
841.200,0.816317
841.300,0.816856
841.400,0.817543
841.500,0.818186
841.600,0.818861
841.700,0.819537
841.800,0.820169
841.900,0.820838
842.000,0.821356
842.100,0.822014
842.200,0.822673
842.300,0.823289
842.400,0.823917
842.500,0.824549
842.600,0.825086
842.700,0.825705
842.800,0.826328
842.900,0.826940
843.000,0.827569
843.100,0.828175
843.200,0.828696
843.300,0.829302
843.400,0.829899
843.500,0.830477
843.600,0.831090
843.700,0.831695
843.800,0.832246
843.900,0.832748
844.000,0.833315
844.100,0.833909
844.200,0.834499
844.300,0.835057
844.400,0.835641
844.500,0.836078
844.600,0.836678
844.700,0.837204
844.800,0.837777
844.900,0.838331
845.000,0.838885
845.100,0.839342
845.200,0.839871
845.300,0.840414
845.400,0.840990
845.500,0.841495
845.600,0.842045
845.700,0.842546
845.800,0.843021
845.900,0.843548
846.000,0.844056
846.100,0.844578
846.200,0.845101
846.300,0.845617
846.400,0.846060
846.500,0.846541
846.600,0.847065
846.700,0.847541
846.800,0.848064
846.900,0.848580
847.000,0.849049
847.100,0.849477
847.200,0.849941
847.300,0.850448
847.400,0.850956
847.500,0.851428
847.600,0.851913
847.700,0.852299
847.800,0.852779
847.900,0.853242
848.000,0.853736
848.100,0.854224
848.200,0.854666
848.300,0.855070
848.400,0.855508
848.500,0.855990
848.600,0.856466
848.700,0.856898
848.800,0.857370
848.900,0.857797
849.000,0.858188
849.100,0.858657
849.200,0.859101
849.300,0.859549
849.400,0.859966
849.500,0.860422
849.600,0.860789
849.700,0.861214
849.800,0.861668
849.900,0.862075
850.000,0.862521
850.100,0.862953
850.200,0.863367
850.300,0.863722
850.400,0.864120
850.500,0.864556
850.600,0.864994
850.700,0.865399
850.800,0.865816
850.900,0.866135
851.000,0.866561
851.100,0.866947
851.200,0.867357
851.300,0.867778
851.400,0.868157
851.500,0.868506
851.600,0.868882
851.700,0.869284
851.800,0.869695
851.900,0.870081
852.000,0.870489
852.100,0.870856
852.200,0.871182
852.300,0.871558
852.400,0.871947
852.500,0.872309
852.600,0.872706
852.700,0.873064
852.800,0.873392
852.900,0.873747
853.000,0.874126
853.100,0.874497
853.200,0.874847
853.300,0.875221
853.400,0.875579
853.500,0.875886
853.600,0.876230
853.700,0.876623
853.800,0.876963
853.900,0.877328
854.000,0.877676
854.100,0.877951
854.200,0.878311
854.300,0.878655
854.400,0.879012
854.500,0.879342
854.600,0.879706
854.700,0.880027
854.800,0.880318
854.900,0.880654
855.000,0.880977
855.100,0.881323
855.200,0.881654
855.300,0.881997
855.400,0.882257
855.500,0.882597
855.600,0.882922
855.700,0.883260
855.800,0.883572
855.900,0.883871
856.000,0.884214
856.100,0.884466
856.200,0.884797
856.300,0.885112
856.400,0.885447
856.500,0.885750
856.600,0.886052
856.700,0.886330
856.800,0.886630
856.900,0.886951
857.000,0.887248
857.100,0.887564
857.200,0.887858
857.300,0.888174
857.400,0.888422
857.500,0.888713
857.600,0.889025
857.700,0.889313
857.800,0.889632
857.900,0.889918
858.000,0.890179
858.100,0.890462
858.200,0.890776
858.300,0.891057
858.400,0.891337
858.500,0.891638
858.600,0.891914
858.700,0.892161
858.800,0.892437
858.900,0.892733
859.000,0.893015
859.100,0.893309
859.200,0.893580
859.300,0.893800
859.400,0.894079
859.500,0.894356
859.600,0.894644
859.700,0.894915
859.800,0.895190
859.900,0.895462
860.000,0.895697
860.100,0.895958
860.200,0.896219
860.300,0.896488
860.400,0.896755
860.500,0.897033
860.600,0.897242
860.700,0.897518
860.800,0.897761
860.900,0.898043
861.000,0.898296
861.100,0.898547
861.200,0.898817
861.300,0.899026
861.400,0.899292
861.500,0.899539
861.600,0.899806
861.700,0.900051
861.800,0.900316
861.900,0.900557
862.000,0.900754
862.100,0.901016
862.200,0.901256
862.300,0.901516
862.400,0.901744
862.500,0.902010
862.600,0.902202
862.700,0.902458
862.800,0.902693
862.900,0.902918
863.000,0.903175
863.100,0.903415
863.200,0.903666
863.300,0.903853
863.400,0.904093
863.500,0.904322
863.600,0.904569
863.700,0.904803
863.800,0.905020
863.900,0.905222
864.000,0.905447
864.100,0.905690
864.200,0.905903
864.300,0.906144
864.400,0.906365
864.500,0.906611
864.600,0.906785
864.700,0.907004
864.800,0.907240
864.900,0.907457
865.000,0.907683
865.100,0.907898
865.200,0.908131
865.300,0.908312
865.400,0.908516
865.500,0.908746
865.600,0.908958
865.700,0.909178
865.800,0.909388
865.900,0.909575
866.000,0.909775
866.100,0.910008
866.200,0.910214
866.300,0.910416
866.400,0.910639
866.500,0.910844
866.600,0.911018
866.700,0.911221
866.800,0.911441
866.900,0.911634
867.000,0.911853
867.100,0.912053
867.200,0.912206
867.300,0.912423
867.400,0.912612
867.500,0.912827
867.600,0.913030
867.700,0.913235
867.800,0.913430
867.900,0.913609
868.000,0.913794
868.100,0.913987
868.200,0.914189
868.300,0.914380
868.400,0.914589
868.500,0.914771
868.600,0.914941
868.700,0.915130
868.800,0.915328
868.900,0.915515
869.000,0.915694
869.100,0.915897
869.200,0.916048
869.300,0.916242
869.400,0.916432
869.500,0.916625
869.600,0.916811
869.700,0.917010
869.800,0.917184
869.900,0.917331
870.000,0.917520
870.100,0.917700
870.200,0.917896
870.300,0.918067
870.400,0.918261
870.500,0.918431
870.600,0.918590
870.700,0.918759
870.800,0.918934
870.900,0.919118
871.000,0.919292
871.100,0.919475
871.200,0.919619
871.300,0.919807
871.400,0.919972
871.500,0.920159
871.600,0.920323
871.700,0.920493
871.800,0.920671
871.900,0.920808
872.000,0.920985
872.100,0.921153
872.200,0.921336
872.300,0.921495
872.400,0.921677
872.500,0.921836
872.600,0.921969
872.700,0.922142
872.800,0.922306
872.900,0.922482
873.000,0.922644
873.100,0.922822
873.200,0.922946
873.300,0.923123
873.400,0.923276
873.500,0.923437
873.600,0.923605
873.700,0.923764
873.800,0.923931
873.900,0.924058
874.000,0.924224
874.100,0.924381
874.200,0.924526
874.300,0.924697
874.400,0.924846
874.500,0.925012
874.600,0.925137
874.700,0.925299
874.800,0.925452
874.900,0.925614
875.000,0.925766
875.100,0.925911
875.200,0.926078
875.300,0.926193
875.400,0.926352
875.500,0.926502
875.600,0.926659
875.700,0.926808
875.800,0.926965
875.900,0.927084
876.000,0.927221
876.100,0.927376
876.200,0.927526
876.300,0.927680
876.400,0.927826
876.500,0.927979
876.600,0.928096
876.700,0.928248
876.800,0.928386
876.900,0.928529
877.000,0.928680
877.100,0.928822
877.200,0.928972
877.300,0.929082
877.400,0.929231
877.500,0.929366
877.600,0.929520
877.700,0.929654
877.800,0.929796
877.900,0.929942
878.000,0.930048
878.100,0.930200
878.200,0.930332
878.300,0.930483
878.400,0.930613
878.500,0.930753
878.600,0.930862
878.700,0.931006
878.800,0.931135
878.900,0.931283
879.000,0.931425
879.100,0.931553
879.200,0.931700
879.300,0.931810
879.400,0.931943
879.500,0.932083
879.600,0.932222
879.700,0.932354
879.800,0.932492
879.900,0.932630
880.000,0.932748
880.100,0.932868
880.200,0.933010
880.300,0.933147
880.400,0.933270
880.500,0.933411
880.600,0.933546
880.700,0.933641
880.800,0.933776
880.900,0.933910
881.000,0.934036
881.100,0.934170
881.200,0.934302
881.300,0.934403
881.400,0.934531
881.500,0.934663
881.600,0.934781
881.700,0.934917
881.800,0.935048
881.900,0.935165
882.000,0.935271
882.100,0.935401
882.200,0.935518
882.300,0.935646
882.400,0.935780
882.500,0.935895
882.600,0.936019
882.700,0.936122
882.800,0.936254
882.900,0.936368
883.000,0.936494
883.100,0.936625
883.200,0.936734
883.300,0.936859
883.400,0.936965
883.500,0.937077
883.600,0.937201
883.700,0.937325
883.800,0.937436
883.900,0.937559
884.000,0.937681
884.100,0.937774
884.200,0.937891
884.300,0.938013
884.400,0.938127
884.500,0.938247
884.600,0.938368
884.700,0.938472
884.800,0.938572
884.900,0.938691
885.000,0.938798
885.100,0.938913
885.200,0.939036
885.300,0.939142
885.400,0.939238
885.500,0.939355
885.600,0.939469
885.700,0.939578
885.800,0.939695
885.900,0.939810
886.000,0.939911
886.100,0.940009
886.200,0.940124
886.300,0.940227
886.400,0.940338
886.500,0.940457
886.600,0.940559
886.700,0.940672
886.800,0.940761
886.900,0.940867
887.000,0.940979
887.100,0.941091
887.200,0.941188
887.300,0.941304
887.400,0.941415
887.500,0.941494
887.600,0.941601
887.700,0.941712
887.800,0.941815
887.900,0.941924
888.000,0.942030
888.100,0.942128
888.200,0.942217
888.300,0.942330
888.400,0.942434
888.500,0.942531
888.600,0.942639
888.700,0.942746
888.800,0.942838
888.900,0.942928
889.000,0.943034
889.100,0.943129
889.200,0.943232
889.300,0.943337
889.400,0.943432
889.500,0.943541
889.600,0.943623
889.700,0.943716
889.800,0.943821
889.900,0.943921
890.000,0.944014
890.100,0.944122
890.200,0.944205
890.300,0.944294
890.400,0.944397
890.500,0.944499
890.600,0.944587
890.700,0.944693
890.800,0.944794
890.900,0.944862
891.000,0.944963
891.100,0.945064
891.200,0.945161
891.300,0.945251
891.400,0.945350
891.500,0.945450
891.600,0.945521
891.700,0.945620
891.800,0.945719
891.900,0.945804
892.000,0.945902
892.100,0.946000
892.200,0.946084
892.300,0.946163
892.400,0.946261
892.500,0.946344
892.600,0.946441
892.700,0.946537
892.800,0.946624
892.900,0.946720
893.000,0.946796
893.100,0.946878
893.200,0.946974
893.300,0.947069
893.400,0.947150
893.500,0.947245
893.600,0.947339
893.700,0.947412
893.800,0.947496
893.900,0.947590
894.000,0.947680
894.100,0.947767
894.200,0.947856
894.300,0.947949
894.400,0.948014
894.500,0.948103
894.600,0.948195
894.700,0.948277
894.800,0.948365
894.900,0.948456
895.000,0.948537
895.100,0.948612
895.200,0.948702
895.300,0.948783
895.400,0.948870
895.500,0.948960
895.600,0.949040
895.700,0.949126
895.800,0.949198
895.900,0.949278
896.000,0.949363
896.100,0.949452
896.200,0.949527
896.300,0.949615
896.400,0.949703
896.500,0.949771
896.600,0.949849
896.700,0.949934
896.800,0.950020
896.900,0.950098
897.000,0.950181
897.100,0.950266
897.200,0.950324
897.300,0.950410
897.400,0.950495
897.500,0.950568
897.600,0.950654
897.700,0.950736
897.800,0.950811
897.900,0.950880
898.000,0.950961
898.100,0.951036
898.200,0.951118
898.300,0.951198
898.400,0.951272
898.500,0.951353
898.600,0.951420
898.700,0.951491
898.800,0.951574
898.900,0.951654
899.000,0.951727
899.100,0.951809
899.200,0.951888
899.300,0.951955
899.400,0.952024
899.500,0.952106
899.600,0.952187
899.700,0.952256
899.800,0.952337
899.900,0.952415
900.000,0.952471
900.100,0.952549
900.200,0.952629
900.300,0.952699
900.400,0.952776
900.500,0.952856
900.600,0.952924
900.700,0.952988
900.800,0.953064
900.900,0.953134
901.000,0.953210
901.100,0.953288
901.200,0.953356
901.300,0.953428
901.400,0.953491
901.500,0.953557
901.600,0.953635
901.700,0.953709
901.800,0.953777
901.900,0.953852
902.000,0.953928
902.100,0.953988
902.200,0.954055
902.300,0.954132
902.400,0.954205
902.500,0.954272
902.600,0.954342
902.700,0.954417
902.800,0.954467
902.900,0.954542
903.000,0.954615
903.100,0.954681
903.200,0.954753
903.300,0.954827
903.400,0.954890
903.500,0.954949
903.600,0.955017
903.700,0.955083
903.800,0.955154
903.900,0.955226
904.000,0.955288
904.100,0.955361
904.200,0.955418
904.300,0.955489
904.400,0.955548
904.500,0.955620
904.600,0.955693
904.700,0.955754
904.800,0.955825
904.900,0.955880
905.000,0.955943
905.100,0.956009
905.200,0.956079
905.300,0.956140
905.400,0.956211
905.500,0.956279
905.600,0.956328
905.700,0.956395
905.800,0.956460
905.900,0.956522
906.000,0.956589
906.100,0.956658
906.200,0.956717
906.300,0.956773
906.400,0.956840
906.500,0.956908
906.600,0.956964
906.700,0.957033
906.800,0.957099
906.900,0.957160
907.000,0.957212
907.100,0.957280
907.200,0.957338
907.300,0.957406
907.400,0.957467
907.500,0.957527
907.600,0.957592
907.700,0.957647
907.800,0.957704
907.900,0.957770
908.000,0.957834
908.100,0.957888
908.200,0.957955
908.300,0.958018
908.400,0.958071
908.500,0.958127
908.600,0.958191
908.700,0.958253
908.800,0.958311
908.900,0.958375
909.000,0.958440
909.100,0.958480
909.200,0.958542
909.300,0.958607
909.400,0.958662
909.500,0.958727
909.600,0.958785
909.700,0.958842
909.800,0.958904
909.900,0.958954
910.000,0.959007
910.100,0.959068
910.200,0.959132
910.300,0.959186
910.400,0.959247
910.500,0.959307
910.600,0.959358
910.700,0.959411
910.800,0.959469
910.900,0.959531
911.000,0.959584
911.100,0.959647
911.200,0.959704
911.300,0.959747
911.400,0.959806
911.500,0.959866
911.600,0.959918
911.700,0.959978
911.800,0.960038
911.900,0.960090
912.000,0.960138
912.100,0.960196
912.200,0.960248
912.300,0.960308
912.400,0.960367
912.500,0.960427
912.600,0.960476
912.700,0.960522
912.800,0.960582
912.900,0.960633
913.000,0.960690
913.100,0.960747
913.200,0.960798
913.300,0.960855
913.400,0.960901
913.500,0.960951
913.600,0.961007
913.700,0.961064
913.800,0.961116
913.900,0.961170
914.000,0.961226
914.100,0.961267
914.200,0.961321
914.300,0.961379
914.400,0.961428
914.500,0.961484
914.600,0.961539
914.700,0.961595
914.800,0.961635
914.900,0.961690
915.000,0.961743
915.100,0.961793
915.200,0.961849
915.300,0.961901
915.400,0.961951
915.500,0.962006
915.600,0.962052
915.700,0.962097
915.800,0.962151
915.900,0.962208
916.000,0.962253
916.100,0.962307
916.200,0.962363
916.300,0.962396
916.400,0.962452
916.500,0.962506
916.600,0.962559
916.700,0.962606
916.800,0.962659
916.900,0.962713
917.000,0.962748
917.100,0.962801
917.200,0.962854
917.300,0.962900
917.400,0.962953
917.500,0.963005
917.600,0.963050
917.700,0.963092
917.800,0.963142
917.900,0.963190
918.000,0.963242
918.100,0.963291
918.200,0.963339
918.300,0.963391
918.400,0.963429
918.500,0.963476
918.600,0.963525
918.700,0.963577
918.800,0.963630
918.900,0.963672
919.000,0.963723
919.100,0.963776
919.200,0.963808
919.300,0.963858
919.400,0.963909
919.500,0.963953
919.600,0.964004
919.700,0.964053
919.800,0.964097
919.900,0.964135
920.000,0.964185
920.100,0.964231
920.200,0.964278
920.300,0.964328
920.400,0.964371
920.500,0.964421
920.600,0.964460
920.700,0.964509
920.800,0.964552
920.900,0.964599
921.000,0.964649
921.100,0.964692
921.200,0.964739
921.300,0.964778
921.400,0.964822
921.500,0.964868
921.600,0.964917
921.700,0.964959
921.800,0.965007
921.900,0.965055
922.000,0.965087
922.100,0.965135
922.200,0.965181
922.300,0.965223
922.400,0.965272
922.500,0.965317
922.600,0.965359
922.700,0.965406
922.800,0.965444
922.900,0.965489
923.000,0.965532
923.100,0.965579
923.200,0.965624
923.300,0.965664
923.400,0.965711
923.500,0.965749
923.600,0.965787
923.700,0.965835
923.800,0.965879
923.900,0.965920
924.000,0.965966
924.100,0.966012
924.200,0.966043
924.300,0.966087
924.400,0.966133
924.500,0.966172
924.600,0.966218
924.700,0.966262
924.800,0.966307
924.900,0.966337
925.000,0.966382
925.100,0.966428
925.200,0.966465
925.300,0.966512
925.400,0.966555
925.500,0.966594
925.600,0.966637
925.700,0.966675
925.800,0.966712
925.900,0.966756
926.000,0.966799
926.100,0.966839
926.200,0.966884
926.300,0.966925
926.400,0.966955
926.500,0.966999
926.600,0.967043
926.700,0.967079
926.800,0.967123
926.900,0.967167
927.000,0.967211
927.100,0.967238
927.200,0.967281
927.300,0.967324
927.400,0.967362
927.500,0.967403
927.600,0.967446
927.700,0.967482
927.800,0.967527
927.900,0.967553
928.000,0.967596
928.100,0.967631
928.200,0.967669
928.300,0.967703
928.400,0.967746
928.500,0.967781
928.600,0.967810
928.700,0.967845
928.800,0.967887
928.900,0.967921
929.000,0.967957
929.100,0.967993
929.200,0.968035
929.300,0.968061
929.400,0.968097
929.500,0.968131
929.600,0.968174
929.700,0.968208
929.800,0.968244
929.900,0.968283
930.000,0.968320
930.100,0.968346
930.200,0.968381
930.300,0.968420
930.400,0.968455
930.500,0.968489
930.600,0.968526
930.700,0.968564
930.800,0.968591
930.900,0.968624
931.000,0.968659
931.100,0.968699
931.200,0.968733
931.300,0.968767
931.400,0.968806
931.500,0.968832
931.600,0.968867
931.700,0.968901
931.800,0.968939
931.900,0.968974
932.000,0.969006
932.100,0.969041
932.200,0.969072
932.300,0.969104
932.400,0.969138
932.500,0.969171
932.600,0.969210
932.700,0.969242
932.800,0.969278
932.900,0.969310
933.000,0.969341
933.100,0.969373
933.200,0.969405
933.300,0.969444
933.400,0.969477
933.500,0.969511
933.600,0.969542
933.700,0.969573
933.800,0.969605
933.900,0.969636
934.000,0.969671
934.100,0.969708
934.200,0.969741
934.300,0.969772
934.400,0.969805
934.500,0.969834
934.600,0.969866
934.700,0.969899
934.800,0.969930
934.900,0.969968
935.000,0.969999
935.100,0.970030
935.200,0.970060
935.300,0.970092
935.400,0.970123
935.500,0.970155
935.600,0.970191
935.700,0.970223
935.800,0.970254
935.900,0.970277
936.000,0.970315
936.100,0.970345
936.200,0.970376
936.300,0.970408
936.400,0.970443
936.500,0.970474
936.600,0.970505
936.700,0.970534
936.800,0.970566
936.900,0.970596
937.000,0.970626
937.100,0.970662
937.200,0.970693
937.300,0.970722
937.400,0.970746
937.500,0.970782
937.600,0.970812
937.700,0.970843
937.800,0.970872
937.900,0.970907
938.000,0.970938
938.100,0.970960
938.200,0.970991
938.300,0.971027
938.400,0.971056
938.500,0.971087
938.600,0.971121
938.700,0.971150
938.800,0.971181
938.900,0.971202
939.000,0.971238
939.100,0.971267
939.200,0.971297
939.300,0.971328
939.400,0.971361
939.500,0.971390
939.600,0.971413
939.700,0.971441
939.800,0.971475
939.900,0.971505
940.000,0.971534
940.100,0.971562
940.200,0.971596
940.300,0.971626
940.400,0.971648
940.500,0.971681
940.600,0.971710
940.700,0.971739
940.800,0.971767
940.900,0.971801
941.000,0.971829
941.100,0.971850
941.200,0.971878
941.300,0.971913
941.400,0.971941
941.500,0.971969
941.600,0.971998
941.700,0.972031
941.800,0.972052
941.900,0.972081
942.000,0.972113
942.100,0.972140
942.200,0.972170
942.300,0.972197
942.400,0.972229
942.500,0.972258
942.600,0.972280
942.700,0.972307
942.800,0.972339
942.900,0.972368
943.000,0.972395
943.100,0.972422
943.200,0.972455
943.300,0.972475
943.400,0.972502
943.500,0.972529
943.600,0.972562
943.700,0.972589
943.800,0.972616
943.900,0.972649
944.000,0.972677
944.100,0.972696
944.200,0.972723
944.300,0.972756
944.400,0.972782
944.500,0.972809
944.600,0.972837
944.700,0.972868
944.800,0.972888
944.900,0.972915
945.000,0.972942
945.100,0.972973
945.200,0.973000
945.300,0.973027
945.400,0.973053
945.500,0.973083
945.600,0.973104
945.700,0.973130
945.800,0.973161
945.900,0.973188
946.000,0.973214
946.100,0.973240
946.200,0.973270
946.300,0.973292
946.400,0.973318
946.500,0.973343
946.600,0.973373
946.700,0.973400
946.800,0.973426
946.900,0.973451
947.000,0.973481
947.100,0.973500
947.200,0.973527
947.300,0.973557
947.400,0.973582
947.500,0.973608
947.600,0.973634
947.700,0.973664
947.800,0.973683
947.900,0.973708
948.000,0.973734
948.100,0.973764
948.200,0.973789
948.300,0.973814
948.400,0.973840
948.500,0.973870
948.600,0.973888
948.700,0.973913
948.800,0.973939
948.900,0.973968
949.000,0.973993
949.100,0.974017
949.200,0.974042
949.300,0.974066
949.400,0.974091
949.500,0.974115
949.600,0.974140
949.700,0.974164
949.800,0.974188
949.900,0.974219
950.000,0.974243
950.100,0.974261
950.200,0.974285
950.300,0.974310
950.400,0.974335
950.500,0.974364
950.600,0.974388
950.700,0.974412
950.800,0.974430
950.900,0.974454
951.000,0.974479
951.100,0.974507
951.200,0.974531
951.300,0.974555
951.400,0.974579
951.500,0.974603
951.600,0.974626
951.700,0.974650
951.800,0.974673
951.900,0.974697
952.000,0.974720
952.100,0.974746
952.200,0.974773
952.300,0.974791
952.400,0.974814
952.500,0.974838
952.600,0.974861
952.700,0.974886
952.800,0.974914
952.900,0.974937
953.000,0.974960
953.100,0.974977
953.200,0.975000
953.300,0.975025
953.400,0.975052
953.500,0.975076
953.600,0.975097
953.700,0.975120
953.800,0.975138
953.900,0.975166
954.000,0.975189
954.100,0.975212
954.200,0.975235
954.300,0.975258
954.400,0.975280
954.500,0.975307
954.600,0.975324
954.700,0.975347
954.800,0.975371
954.900,0.975394
955.000,0.975416
955.100,0.975443
955.200,0.975465
955.300,0.975482
955.400,0.975504
955.500,0.975528
955.600,0.975551
955.700,0.975577
955.800,0.975599
955.900,0.975622
956.000,0.975643
956.100,0.975661
956.200,0.975687
956.300,0.975709
956.400,0.975731
956.500,0.975754
956.600,0.975777
956.700,0.975799
956.800,0.975819
956.900,0.975841
957.000,0.975863
957.100,0.975885
957.200,0.975907
957.300,0.975930
957.400,0.975956
957.500,0.975978
957.600,0.975993
957.700,0.976015
957.800,0.976037
957.900,0.976058
958.000,0.976084
958.100,0.976106
958.200,0.976128
958.300,0.976150
958.400,0.976166
958.500,0.976191
958.600,0.976213
958.700,0.976234
958.800,0.976256
958.900,0.976276
959.000,0.976297
959.100,0.976317
959.200,0.976339
959.300,0.976360
959.400,0.976381
959.500,0.976402
959.600,0.976423
959.700,0.976448
959.800,0.976469
959.900,0.976486
960.000,0.976506
960.100,0.976527
960.200,0.976549
960.300,0.976573
960.400,0.976594
960.500,0.976615
960.600,0.976631
960.700,0.976652
960.800,0.976674
960.900,0.976698
961.000,0.976719
961.100,0.976739
961.200,0.976759
961.300,0.976780
961.400,0.976799
961.500,0.976820
961.600,0.976840
961.700,0.976862
961.800,0.976883
961.900,0.976903
962.000,0.976927
962.100,0.976947
962.200,0.976962
962.300,0.976982
962.400,0.977003
962.500,0.977023
962.600,0.977047
962.700,0.977068
962.800,0.977088
962.900,0.977102
963.000,0.977122
963.100,0.977142
963.200,0.977166
963.300,0.977186
963.400,0.977207
963.500,0.977228
963.600,0.977248
963.700,0.977265
963.800,0.977285
963.900,0.977305
964.000,0.977325
964.100,0.977345
964.200,0.977365
964.300,0.977389
964.400,0.977403
964.500,0.977422
964.600,0.977442
964.700,0.977462
964.800,0.977481
964.900,0.977505
965.000,0.977524
965.100,0.977544
965.200,0.977558
965.300,0.977577
965.400,0.977597
965.500,0.977620
965.600,0.977639
965.700,0.977659
965.800,0.977678
965.900,0.977697
966.000,0.977715
966.100,0.977734
966.200,0.977753
966.300,0.977773
966.400,0.977792
966.500,0.977811
966.600,0.977834
966.700,0.977848
966.800,0.977867
966.900,0.977886
967.000,0.977905
967.100,0.977924
967.200,0.977946
967.300,0.977965
967.400,0.977984
967.500,0.977998
967.600,0.978017
967.700,0.978036
967.800,0.978059
967.900,0.978077
968.000,0.978096
968.100,0.978115
968.200,0.978133
968.300,0.978151
968.400,0.978170
968.500,0.978188
968.600,0.978206
968.700,0.978225
968.800,0.978244
968.900,0.978266
969.000,0.978279
969.100,0.978298
969.200,0.978316
969.300,0.978334
969.400,0.978353
969.500,0.978375
969.600,0.978394
969.700,0.978411
969.800,0.978425
969.900,0.978443
970.000,0.978462
970.100,0.978483
970.200,0.978502
970.300,0.978519
970.400,0.978537
970.500,0.978556
970.600,0.978569
970.700,0.978587
970.800,0.978605
970.900,0.978623
971.000,0.978641
971.100,0.978659
971.200,0.978680
971.300,0.978693
971.400,0.978711
971.500,0.978729
971.600,0.978747
971.700,0.978765
971.800,0.978783
971.900,0.978800
972.000,0.978817
972.100,0.978830
972.200,0.978848
972.300,0.978865
972.400,0.978883
972.500,0.978900
972.600,0.978918
972.700,0.978935
972.800,0.978956
972.900,0.978968
973.000,0.978986
973.100,0.979004
973.200,0.979021
973.300,0.979039
973.400,0.979056
973.500,0.979073
973.600,0.979091
973.700,0.979103
973.800,0.979120
973.900,0.979137
974.000,0.979154
974.100,0.979171
974.200,0.979189
974.300,0.979205
974.400,0.979221
974.500,0.979239
974.600,0.979256
974.700,0.979272
974.800,0.979289
974.900,0.979306
975.000,0.979323
975.100,0.979340
975.200,0.979353
975.300,0.979369
975.400,0.979385
975.500,0.979402
975.600,0.979420
975.700,0.979436
975.800,0.979453
975.900,0.979470
976.000,0.979482
976.100,0.979503
976.200,0.979519
976.300,0.979536
976.400,0.979553
976.500,0.979570
976.600,0.979586
976.700,0.979597
976.800,0.979614
976.900,0.979631
977.000,0.979647
977.100,0.979664
977.200,0.979680
977.300,0.979697
977.400,0.979714
977.500,0.979725
977.600,0.979742
977.700,0.979762
977.800,0.979778
977.900,0.979794
978.000,0.979811
978.100,0.979827
978.200,0.979843
978.300,0.979854
978.400,0.979871
978.500,0.979887
978.600,0.979904
978.700,0.979919
978.800,0.979936
978.900,0.979952
979.000,0.979969
979.100,0.979980
979.200,0.979996
979.300,0.980015
979.400,0.980031
979.500,0.980046
979.600,0.980063
979.700,0.980079
979.800,0.980091
979.900,0.980106
980.000,0.980122
980.100,0.980138
980.200,0.980154
980.300,0.980169
980.400,0.980185
980.500,0.980202
980.600,0.980213
980.700,0.980229
980.800,0.980244
980.900,0.980260
981.000,0.980279
981.100,0.980294
981.200,0.980310
981.300,0.980326
981.400,0.980338
981.500,0.980352
981.600,0.980368
981.700,0.980384
981.800,0.980399
981.900,0.980415
982.000,0.980430
982.100,0.980446
982.200,0.980456
982.300,0.980472
982.400,0.980488
982.500,0.980503
982.600,0.980521
982.700,0.980536
982.800,0.980552
982.900,0.980567
983.000,0.980578
983.100,0.980594
983.200,0.980608
983.300,0.980623
983.400,0.980639
983.500,0.980654
983.600,0.980669
983.700,0.980679
983.800,0.980695
983.900,0.980710
984.000,0.980725
984.100,0.980741
984.200,0.980759
984.300,0.980774
984.400,0.980789
984.500,0.980800
984.600,0.980815
984.700,0.980829
984.800,0.980845
984.900,0.980860
985.000,0.980874
985.100,0.980890
985.200,0.980905
985.300,0.980914
985.400,0.980930
985.500,0.980945
985.600,0.980959
985.700,0.980974
985.800,0.980992
985.900,0.981007
986.000,0.981021
986.100,0.981032
986.200,0.981046
986.300,0.981061
986.400,0.981076
986.500,0.981091
986.600,0.981105
986.700,0.981119
986.800,0.981134
986.900,0.981145
987.000,0.981159
987.100,0.981174
987.200,0.981189
987.300,0.981202
987.400,0.981217
987.500,0.981235
987.600,0.981245
987.700,0.981260
987.800,0.981273
987.900,0.981287
988.000,0.981302
988.100,0.981317
988.200,0.981332
988.300,0.981345
988.400,0.981356
988.500,0.981370
988.600,0.981384
988.700,0.981398
988.800,0.981413
988.900,0.981426
989.000,0.981441
989.100,0.981458
989.200,0.981467
989.300,0.981482
989.400,0.981497
989.500,0.981509
989.600,0.981524
989.700,0.981538
989.800,0.981551
989.900,0.981566
990.000,0.981576
990.100,0.981590
990.200,0.981604
990.300,0.981619
990.400,0.981632
990.500,0.981646
990.600,0.981660
990.700,0.981677
990.800,0.981687
990.900,0.981700
991.000,0.981714
991.100,0.981728
991.200,0.981742
991.300,0.981756
991.400,0.981769
991.500,0.981783
991.600,0.981793
991.700,0.981807
991.800,0.981817
991.900,0.981831
992.000,0.981845
992.100,0.981859
992.200,0.981872
992.300,0.981880
992.400,0.981893
992.500,0.981907
992.600,0.981920
992.700,0.981933
992.800,0.981945
992.900,0.981959
993.000,0.981971
993.100,0.981981
993.200,0.981995
993.300,0.982006
993.400,0.982019
993.500,0.982032
993.600,0.982046
993.700,0.982060
993.800,0.982070
993.900,0.982079
994.000,0.982093
994.100,0.982106
994.200,0.982119
994.300,0.982130
994.400,0.982144
994.500,0.982157
994.600,0.982170
994.700,0.982180
994.800,0.982190
994.900,0.982203
995.000,0.982216
995.100,0.982230
995.200,0.982243
995.300,0.982253
995.400,0.982267
995.500,0.982276
995.600,0.982290
995.700,0.982302
995.800,0.982313
995.900,0.982326
996.000,0.982339
996.100,0.982352
996.200,0.982365
996.300,0.982374
996.400,0.982384
996.500,0.982397
996.600,0.982411
996.700,0.982423
996.800,0.982436
996.900,0.982447
997.000,0.982459
997.100,0.982468
997.200,0.982482
997.300,0.982494
997.400,0.982504
997.500,0.982518
997.600,0.982529
997.700,0.982543
997.800,0.982555
997.900,0.982562
998.000,0.982575
998.100,0.982588
998.200,0.982601
998.300,0.982613
998.400,0.982623
998.500,0.982636
998.600,0.982648
998.700,0.982657
998.800,0.982671
998.900,0.982680
999.000,0.982693
999.100,0.982705
999.200,0.982718
999.300,0.982731
999.400,0.982737
999.500,0.982749
999.600,0.982762
999.700,0.982774
999.800,0.982786
999.900,0.982797
1000.000,0.982809