Wavelength,Reflectance
400.000,0.815386
400.100,0.815356
400.200,0.815329
400.300,0.815299
400.400,0.815272
400.500,0.815243
400.600,0.815215
400.700,0.815186
400.800,0.815157
400.900,0.815130
401.000,0.815101
401.100,0.815076
401.200,0.815050
401.300,0.815026
401.400,0.814999
401.500,0.814972
401.600,0.814948
401.700,0.814922
401.800,0.814898
401.900,0.814871
402.000,0.814847
402.100,0.814821
402.200,0.814798
402.300,0.814771
402.400,0.814747
402.500,0.814721
402.600,0.814698
402.700,0.814674
402.800,0.814653
402.900,0.814629
403.000,0.814609
403.100,0.814585
403.200,0.814564
403.300,0.814540
403.400,0.814519
403.500,0.814495
403.600,0.814475
403.700,0.814451
403.800,0.814430
403.900,0.814407
404.000,0.814386
404.100,0.814363
404.200,0.814343
404.300,0.814322
404.400,0.814303
404.500,0.814283
404.600,0.814264
404.700,0.814243
404.800,0.814225
404.900,0.814204
405.000,0.814186
405.100,0.814166
405.200,0.814148
405.300,0.814130
405.400,0.814109
405.500,0.814091
405.600,0.814070
405.700,0.814052
405.800,0.814033
405.900,0.814017
406.000,0.813999
406.100,0.813983
406.200,0.813965
406.300,0.813949
406.400,0.813931
406.500,0.813915
406.600,0.813897
406.700,0.813881
406.800,0.813863
406.900,0.813847
407.000,0.813829
407.100,0.813814
407.200,0.813796
407.300,0.813780
407.400,0.813764
407.500,0.813750
407.600,0.813734
407.700,0.813721
407.800,0.813705
407.900,0.813691
408.000,0.813676
408.100,0.813662
408.200,0.813646
408.300,0.813633
408.400,0.813617
408.500,0.813604
408.600,0.813591
408.700,0.813575
408.800,0.813563
408.900,0.813547
409.000,0.813535
409.100,0.813521
409.200,0.813510
409.300,0.813496
409.400,0.813485
409.500,0.813471
409.600,0.813460
409.700,0.813446
409.800,0.813435
409.900,0.813421
410.000,0.813410
410.100,0.813397
410.200,0.813386
410.300,0.813372
410.400,0.813361
410.500,0.813347
410.600,0.813338
410.700,0.813326
410.800,0.813317
410.900,0.813305
411.000,0.813296
411.100,0.813284
411.200,0.813275
411.300,0.813263
411.400,0.813254
411.500,0.813242
411.600,0.813233
411.700,0.813224
411.800,0.813212
411.900,0.813203
412.000,0.813192
412.100,0.813183
412.200,0.813173
412.300,0.813165
412.400,0.813155
412.500,0.813147
412.600,0.813137
412.700,0.813130
412.800,0.813120
412.900,0.813112
413.000,0.813102
413.100,0.813094
413.200,0.813085
413.300,0.813077
413.400,0.813067
413.500,0.813060
413.600,0.813050
413.700,0.813043
413.800,0.813034
413.900,0.813028
414.000,0.813019
414.100,0.813014
414.200,0.813005
414.300,0.812999
414.400,0.812990
414.500,0.812984
414.600,0.812976
414.700,0.812970
414.800,0.812961
414.900,0.812956
415.000,0.812950
415.100,0.812941
415.200,0.812935
415.300,0.812930
415.400,0.812923
415.500,0.812918
415.600,0.812914
415.700,0.812909
415.800,0.812902
415.900,0.812897
416.000,0.812893
416.100,0.812885
416.200,0.812881
416.300,0.812877
416.400,0.812870
416.500,0.812865
416.600,0.812860
416.700,0.812853
416.800,0.812849
416.900,0.812845
417.000,0.812842
417.100,0.812835
417.200,0.812832
417.300,0.812828
417.400,0.812822
417.500,0.812819
417.600,0.812816
417.700,0.812809
417.800,0.812806
417.900,0.812802
418.000,0.812796
418.100,0.812793
418.200,0.812790
418.300,0.812786
418.400,0.812780
418.500,0.812777
418.600,0.812775
418.700,0.812770
418.800,0.812767
418.900,0.812765
419.000,0.812760
419.100,0.812758
419.200,0.812755
419.300,0.812750
419.400,0.812748
419.500,0.812745
419.600,0.812743
419.700,0.812738
419.800,0.812735
419.900,0.812733
420.000,0.812728
420.100,0.812726
420.200,0.812725
420.300,0.812721
420.400,0.812719
420.500,0.812718
420.600,0.812713
420.700,0.812712
420.800,0.812710
420.900,0.812709
421.000,0.812704
421.100,0.812703
421.200,0.812701
421.300,0.812697
421.400,0.812695
421.500,0.812693
421.600,0.812689
421.700,0.812689
421.800,0.812688
421.900,0.812687
422.000,0.812683
422.100,0.812683
422.200,0.812682
422.300,0.812678
422.400,0.812677
422.500,0.812676
422.600,0.812673
422.700,0.812672
422.800,0.812671
422.900,0.812667
423.000,0.812666
423.100,0.812666
423.200,0.812665
423.300,0.812662
423.400,0.812662
423.500,0.812661
423.600,0.812658
423.700,0.812658
423.800,0.812658
423.900,0.812654
424.000,0.812654
424.100,0.812654
424.200,0.812651
424.300,0.812650
424.400,0.812650
424.500,0.812650
424.600,0.812647
424.700,0.812646
424.800,0.812646
424.900,0.812643
425.000,0.812643
425.100,0.812644
425.200,0.812641
425.300,0.812641
425.400,0.812642
425.500,0.812639
425.600,0.812639
425.700,0.812639
425.800,0.812639
425.900,0.812637
426.000,0.812637
426.100,0.812636
426.200,0.812634
426.300,0.812634
426.400,0.812634
426.500,0.812632
426.600,0.812632
426.700,0.812633
426.800,0.812631
426.900,0.812631
427.000,0.812631
427.100,0.812632
427.200,0.812630
427.300,0.812630
427.400,0.812631
427.500,0.812628
427.600,0.812629
427.700,0.812629
427.800,0.812629
427.900,0.812629
428.000,0.812630
428.100,0.812630
428.200,0.812629
428.300,0.812629
428.400,0.812630
428.500,0.812630
428.600,0.812631
428.700,0.812632
428.800,0.812633
428.900,0.812634
429.000,0.812634
429.100,0.812634
429.200,0.812635
429.300,0.812635
429.400,0.812633
429.500,0.812633
429.600,0.812634
429.700,0.812635
429.800,0.812636
429.900,0.812637
430.000,0.812638
430.100,0.812638
430.200,0.812639
430.300,0.812640
430.400,0.812641
430.500,0.812642
430.600,0.812639
430.700,0.812640
430.800,0.812641
430.900,0.812641
431.000,0.812642
431.100,0.812643
431.200,0.812644
431.300,0.812645
431.400,0.812645
431.500,0.812646
431.600,0.812647
431.700,0.812648
431.800,0.812646
431.900,0.812647
432.000,0.812648
432.100,0.812648
432.200,0.812649
432.300,0.812650
432.400,0.812650
432.500,0.812651
432.600,0.812652
432.700,0.812652
432.800,0.812653
432.900,0.812654
433.000,0.812652
433.100,0.812653
433.200,0.812653
433.300,0.812654
433.400,0.812655
433.500,0.812656
433.600,0.812657
433.700,0.812657
433.800,0.812657
433.900,0.812659
434.000,0.812659
434.100,0.812660
434.200,0.812657
434.300,0.812658
434.400,0.812659
434.500,0.812660
434.600,0.812660
434.700,0.812661
434.800,0.812662
434.900,0.812663
435.000,0.812663
435.100,0.812664
435.200,0.812665
435.300,0.812665
435.400,0.812663
435.500,0.812664
435.600,0.812664
435.700,0.812665
435.800,0.812666
435.900,0.812666
436.000,0.812667
436.100,0.812667
436.200,0.812668
436.300,0.812668
436.400,0.812669
436.500,0.812670
436.600,0.812668
436.700,0.812668
436.800,0.812669
436.900,0.812669
437.000,0.812670
437.100,0.812670
437.200,0.812671
437.300,0.812671
437.400,0.812671
437.500,0.812671
437.600,0.812672
437.700,0.812672
437.800,0.812670
437.900,0.812671
438.000,0.812671
438.100,0.812671
438.200,0.812672
438.300,0.812672
438.400,0.812672
438.500,0.812673
438.600,0.812673
438.700,0.812674
438.800,0.812673
438.900,0.812674
439.000,0.812671
439.100,0.812671
439.200,0.812671
439.300,0.812672
439.400,0.812672
439.500,0.812672
439.600,0.812673
439.700,0.812672
439.800,0.812673
439.900,0.812670
440.000,0.812670
440.100,0.812670
440.200,0.812670
440.300,0.812671
440.400,0.812671
440.500,0.812670
440.600,0.812668
440.700,0.812668
440.800,0.812668
440.900,0.812668
441.000,0.812668
441.100,0.812668
441.200,0.812668
441.300,0.812665
441.400,0.812665
441.500,0.812665
441.600,0.812665
441.700,0.812664
441.800,0.812664
441.900,0.812664
442.000,0.812661
442.100,0.812661
442.200,0.812661
442.300,0.812660
442.400,0.812661
442.500,0.812660
442.600,0.812660
442.700,0.812657
442.800,0.812656
442.900,0.812656
443.000,0.812656
443.100,0.812656
443.200,0.812655
443.300,0.812655
443.400,0.812652
443.500,0.812651
443.600,0.812651
443.700,0.812650
443.800,0.812650
443.900,0.812649
444.000,0.812649
444.100,0.812646
444.200,0.812645
444.300,0.812645
444.400,0.812644
444.500,0.812643
444.600,0.812643
444.700,0.812642
444.800,0.812639
444.900,0.812638
445.000,0.812638
445.100,0.812637
445.200,0.812637
445.300,0.812636
445.400,0.812635
445.500,0.812632
445.600,0.812631
445.700,0.812630
445.800,0.812629
445.900,0.812629
446.000,0.812628
446.100,0.812627
446.200,0.812626
446.300,0.812622
446.400,0.812622
446.500,0.812620
446.600,0.812620
446.700,0.812618
446.800,0.812618
446.900,0.812616
447.000,0.812613
447.100,0.812612
447.200,0.812611
447.300,0.812610
447.400,0.812609
447.500,0.812608
447.600,0.812607
447.700,0.812603
447.800,0.812602
447.900,0.812601
448.000,0.812600
448.100,0.812598
448.200,0.812597
448.300,0.812596
448.400,0.812592
448.500,0.812591
448.600,0.812589
448.700,0.812588
448.800,0.812587
448.900,0.812586
449.000,0.812584
449.100,0.812580
449.200,0.812579
449.300,0.812578
449.400,0.812576
449.500,0.812575
449.600,0.812574
449.700,0.812572
449.800,0.812568
449.900,0.812566
450.000,0.812565
450.100,0.812563
450.200,0.812562
450.300,0.812560
450.400,0.812559
450.500,0.812555
450.600,0.812553
450.700,0.812551
450.800,0.812550
450.900,0.812548
451.000,0.812547
451.100,0.812545
451.200,0.812541
451.300,0.812539
451.400,0.812537
451.500,0.812536
451.600,0.812534
451.700,0.812532
451.800,0.812530
451.900,0.812526
452.000,0.812524
452.100,0.812523
452.200,0.812520
452.300,0.812518
452.400,0.812514
452.500,0.812512
452.600,0.812510
452.700,0.812509
452.800,0.812504
452.900,0.812502
453.000,0.812500
453.100,0.812498
453.200,0.812494
453.300,0.812492
453.400,0.812490
453.500,0.812488
453.600,0.812483
453.700,0.812481
453.800,0.812479
453.900,0.812474
454.000,0.812472
454.100,0.812470
454.200,0.812468
454.300,0.812463
454.400,0.812461
454.500,0.812459
454.600,0.812457
454.700,0.812452
454.800,0.812450
454.900,0.812448
455.000,0.812443
455.100,0.812441
455.200,0.812438
455.300,0.812436
455.400,0.812431
455.500,0.812428
455.600,0.812426
455.700,0.812423
455.800,0.812419
455.900,0.812416
456.000,0.812414
456.100,0.812411
456.200,0.812406
456.300,0.812404
456.400,0.812401
456.500,0.812396
456.600,0.812394
456.700,0.812391
456.800,0.812388
456.900,0.812383
457.000,0.812381
457.100,0.812378
457.200,0.812375
457.300,0.812370
457.400,0.812368
457.500,0.812365
457.600,0.812359
457.700,0.812357
457.800,0.812354
457.900,0.812351
458.000,0.812346
458.100,0.812344
458.200,0.812341
458.300,0.812338
458.400,0.812332
458.500,0.812329
458.600,0.812326
458.700,0.812324
458.800,0.812318
458.900,0.812315
459.000,0.812312
459.100,0.812307
459.200,0.812304
459.300,0.812301
459.400,0.812298
459.500,0.812292
459.600,0.812289
459.700,0.812286
459.800,0.812283
459.900,0.812277
460.000,0.812274
460.100,0.812271
460.200,0.812265
460.300,0.812262
460.400,0.812258
460.500,0.812255
460.600,0.812249
460.700,0.812246
460.800,0.812243
460.900,0.812239
461.000,0.812233
461.100,0.812230
461.200,0.812227
461.300,0.812223
461.400,0.812217
461.500,0.812214
461.600,0.812210
461.700,0.812203
461.800,0.812200
461.900,0.812196
462.000,0.812193
462.100,0.812186
462.200,0.812183
462.300,0.812179
462.400,0.812175
462.500,0.812169
462.600,0.812166
462.700,0.812162
462.800,0.812156
462.900,0.812152
463.000,0.812147
463.100,0.812144
463.200,0.812137
463.300,0.812133
463.400,0.812129
463.500,0.812125
463.600,0.812118
463.700,0.812114
463.800,0.812110
463.900,0.812106
464.000,0.812099
464.100,0.812095
464.200,0.812091
464.300,0.812087
464.400,0.812083
464.500,0.812078
464.600,0.812076
464.700,0.812071
464.800,0.812067
464.900,0.812062
465.000,0.812058
465.100,0.812053
465.200,0.812049
465.300,0.812044
465.400,0.812040
465.500,0.812035
465.600,0.812033
465.700,0.812029
465.800,0.812024
465.900,0.812019
466.000,0.812015
466.100,0.812010
466.200,0.812004
466.300,0.812000
466.400,0.811994
466.500,0.811989
466.600,0.811986
466.700,0.811981
466.800,0.811976
466.900,0.811970
467.000,0.811966
467.100,0.811960
467.200,0.811955
467.300,0.811950
467.400,0.811945
467.500,0.811940
467.600,0.811937
467.700,0.811931
467.800,0.811925
467.900,0.811919
468.000,0.811913
468.100,0.811907
468.200,0.811902
468.300,0.811896
468.400,0.811890
468.500,0.811884
468.600,0.811881
468.700,0.811875
468.800,0.811869
468.900,0.811863
469.000,0.811857
469.100,0.811851
469.200,0.811845
469.300,0.811838
469.400,0.811832
469.500,0.811825
469.600,0.811821
469.700,0.811815
469.800,0.811808
469.900,0.811801
470.000,0.811794
470.100,0.811788
470.200,0.811781
470.300,0.811774
470.400,0.811767
470.500,0.811760
470.600,0.811757
470.700,0.811750
470.800,0.811743
470.900,0.811735
471.000,0.811728
471.100,0.811720
471.200,0.811713
471.300,0.811705
471.400,0.811697
471.500,0.811690
471.600,0.811684
471.700,0.811676
471.800,0.811669
471.900,0.811661
472.000,0.811654
472.100,0.811646
472.200,0.811639
472.300,0.811631
472.400,0.811623
472.500,0.811614
472.600,0.811608
472.700,0.811600
472.800,0.811591
472.900,0.811583
473.000,0.811574
473.100,0.811565
473.200,0.811557
473.300,0.811548
473.400,0.811539
473.500,0.811531
473.600,0.811524
473.700,0.811516
473.800,0.811507
473.900,0.811498
474.000,0.811489
474.100,0.811480
474.200,0.811469
474.300,0.811459
474.400,0.811450
474.500,0.811440
474.600,0.811432
474.700,0.811423
474.800,0.811413
474.900,0.811403
475.000,0.811393
475.100,0.811383
475.200,0.811373
475.300,0.811363
475.400,0.811353
475.500,0.811343
475.600,0.811336
475.700,0.811324
475.800,0.811314
475.900,0.811302
476.000,0.811291
476.100,0.811280
476.200,0.811268
476.300,0.811257
476.400,0.811246
476.500,0.811235
476.600,0.811224
476.700,0.811212
476.800,0.811201
476.900,0.811190
477.000,0.811178
477.100,0.811167
477.200,0.811153
477.300,0.811140
477.400,0.811128
477.500,0.811115
477.600,0.811102
477.700,0.811090
477.800,0.811077
477.900,0.811064
478.000,0.811052
478.100,0.811039
478.200,0.811026
478.300,0.811013
478.400,0.811000
478.500,0.810988
478.600,0.810975
478.700,0.810963
478.800,0.810949
478.900,0.810935
479.000,0.810920
479.100,0.810906
479.200,0.810892
479.300,0.810878
479.400,0.810864
479.500,0.810847
479.600,0.810832
479.700,0.810818
479.800,0.810803
479.900,0.810790
480.000,0.810775
480.100,0.810761
480.200,0.810747
480.300,0.810732
480.400,0.810717
480.500,0.810701
480.600,0.810685
480.700,0.810669
480.800,0.810653
480.900,0.810637
481.000,0.810621
481.100,0.810605
481.200,0.810589
481.300,0.810573
481.400,0.810557
481.500,0.810541
481.600,0.810525
481.700,0.810506
481.800,0.810490
481.900,0.810474
482.000,0.810457
482.100,0.810439
482.200,0.810422
482.300,0.810404
482.400,0.810386
482.500,0.810368
482.600,0.810350
482.700,0.810332
482.800,0.810314
482.900,0.810296
483.000,0.810278
483.100,0.810260
483.200,0.810243
483.300,0.810225
483.400,0.810207
483.500,0.810189
483.600,0.810170
483.700,0.810150
483.800,0.810130
483.900,0.810111
484.000,0.810089
484.100,0.810069
484.200,0.810049
484.300,0.810029
484.400,0.810010
484.500,0.809990
484.600,0.809970
484.700,0.809950
484.800,0.809931
484.900,0.809911
485.000,0.809891
485.100,0.809872
485.200,0.809850
485.300,0.809828
485.400,0.809806
485.500,0.809785
485.600,0.809763
485.700,0.809741
485.800,0.809720
485.900,0.809698
486.000,0.809677
486.100,0.809655
486.200,0.809633
486.300,0.809609
486.400,0.809587
486.500,0.809566
486.600,0.809544
486.700,0.809522
486.800,0.809499
486.900,0.809475
487.000,0.809451
487.100,0.809428
487.200,0.809404
487.300,0.809381
487.400,0.809357
487.500,0.809334
487.600,0.809310
487.700,0.809287
487.800,0.809263
487.900,0.809240
488.000,0.809216
488.100,0.809192
488.200,0.809169
488.300,0.809145
488.400,0.809120
488.500,0.809092
488.600,0.809066
488.700,0.809041
488.800,0.809016
488.900,0.808990
489.000,0.808965
489.100,0.808939
489.200,0.808914
489.300,0.808888
489.400,0.808863
489.500,0.808838
489.600,0.808812
489.700,0.808787
489.800,0.808762
489.900,0.808733
490.000,0.808706
490.100,0.808679
490.200,0.808651
490.300,0.808622
490.400,0.808595
490.500,0.808568
490.600,0.808541
490.700,0.808511
490.800,0.808484
490.900,0.808456
491.000,0.808430
491.100,0.808402
491.200,0.808373
491.300,0.808345
491.400,0.808318
491.500,0.808291
491.600,0.808260
491.700,0.808231
491.800,0.808202
491.900,0.808173
492.000,0.808142
492.100,0.808113
492.200,0.808085
492.300,0.808056
492.400,0.808028
492.500,0.807996
492.600,0.807968
492.700,0.807939
492.800,0.807910
492.900,0.807879
493.000,0.807850
493.100,0.807821
493.200,0.807791
493.300,0.807761
493.400,0.807729
493.500,0.807699
493.600,0.807669
493.700,0.807639
493.800,0.807606
493.900,0.807577
494.000,0.807547
494.100,0.807517
494.200,0.807484
494.300,0.807455
494.400,0.807425
494.500,0.807395
494.600,0.807365
494.700,0.807332
494.800,0.807301
494.900,0.807270
495.000,0.807239
495.100,0.807206
495.200,0.807175
495.300,0.807144
495.400,0.807113
495.500,0.807080
495.600,0.807049
495.700,0.807018
495.800,0.806987
495.900,0.806956
496.000,0.806922
496.100,0.806892
496.200,0.806861
496.300,0.806830
496.400,0.806796
496.500,0.806764
496.600,0.806733
496.700,0.806701
496.800,0.806667
496.900,0.806636
497.000,0.806604
497.100,0.806573
497.200,0.806541
497.300,0.806507
497.400,0.806476
497.500,0.806444
497.600,0.806413
497.700,0.806379
497.800,0.806347
497.900,0.806316
498.000,0.806284
498.100,0.806252
498.200,0.806218
498.300,0.806186
498.400,0.806154
498.500,0.806122
498.600,0.806088
498.700,0.806056
498.800,0.806024
498.900,0.805993
499.000,0.805958
499.100,0.805926
499.200,0.805894
499.300,0.805863
499.400,0.805831
499.500,0.805796
499.600,0.805764
499.700,0.805733
499.800,0.805701
499.900,0.805666
500.000,0.805634
500.100,0.805603
500.200,0.805571
500.300,0.805536
500.400,0.805504
500.500,0.805473
500.600,0.805440
500.700,0.805409
500.800,0.805374
500.900,0.805343
501.000,0.805310
501.100,0.805279
501.200,0.805245
501.300,0.805213
501.400,0.805182
501.500,0.805150
501.600,0.805116
501.700,0.805084
501.800,0.805053
501.900,0.805021
502.000,0.804990
502.100,0.804955
502.200,0.804924
502.300,0.804892
502.400,0.804860
502.500,0.804826
502.600,0.804794
502.700,0.804763
502.800,0.804732
502.900,0.804698
503.000,0.804667
503.100,0.804636
503.200,0.804605
503.300,0.804574
503.400,0.804540
503.500,0.804509
503.600,0.804478
503.700,0.804447
503.800,0.804413
503.900,0.804381
504.000,0.804350
504.100,0.804318
504.200,0.804287
504.300,0.804254
504.400,0.804224
504.500,0.804193
504.600,0.804163
504.700,0.804130
504.800,0.804099
504.900,0.804068
505.000,0.804038
505.100,0.804004
505.200,0.803974
505.300,0.803943
505.400,0.803912
505.500,0.803882
505.600,0.803848
505.700,0.803817
505.800,0.803786
505.900,0.803757
506.000,0.803724
506.100,0.803694
506.200,0.803664
506.300,0.803634
506.400,0.803602
506.500,0.803571
506.600,0.803541
506.700,0.803511
506.800,0.803481
506.900,0.803448
507.000,0.803417
507.100,0.803387
507.200,0.803357
507.300,0.803323
507.400,0.803293
507.500,0.803264
507.600,0.803235
507.700,0.803206
507.800,0.803174
507.900,0.803144
508.000,0.803115
508.100,0.803086
508.200,0.803054
508.300,0.803024
508.400,0.802995
508.500,0.802965
508.600,0.802935
508.700,0.802903
508.800,0.802873
508.900,0.802843
509.000,0.802813
509.100,0.802782
509.200,0.802753
509.300,0.802725
509.400,0.802696
509.500,0.802667
509.600,0.802636
509.700,0.802607
509.800,0.802578
509.900,0.802549
510.000,0.802520
510.100,0.802488
510.200,0.802459
510.300,0.802429
510.400,0.802400
510.500,0.802368
510.600,0.802339
510.700,0.802311
510.800,0.802283
510.900,0.802255
511.000,0.802224
511.100,0.802196
511.200,0.802168
511.300,0.802140
511.400,0.802109
511.500,0.802080
511.600,0.802051
511.700,0.802023
511.800,0.801994
511.900,0.801962
512.000,0.801933
512.100,0.801904
512.200,0.801876
512.300,0.801846
512.400,0.801818
512.500,0.801791
512.600,0.801763
512.700,0.801735
512.800,0.801705
512.900,0.801677
513.000,0.801649
513.100,0.801621
513.200,0.801590
513.300,0.801562
513.400,0.801534
513.500,0.801505
513.600,0.801476
513.700,0.801445
513.800,0.801417
513.900,0.801391
514.000,0.801363
514.100,0.801334
514.200,0.801306
514.300,0.801279
514.400,0.801252
514.500,0.801225
514.600,0.801194
514.700,0.801167
514.800,0.801139
514.900,0.801111
515.000,0.801080
515.100,0.801053
515.200,0.801024
515.300,0.800996
515.400,0.800969
515.500,0.800940
515.600,0.800914
515.700,0.800887
515.800,0.800860
515.900,0.800830
516.000,0.800803
516.100,0.800776
516.200,0.800749
516.300,0.800722
516.400,0.800692
516.500,0.800664
516.600,0.800637
516.700,0.800609
516.800,0.800581
516.900,0.800551
517.000,0.800524
517.100,0.800498
517.200,0.800472
517.300,0.800442
517.400,0.800417
517.500,0.800390
517.600,0.800363
517.700,0.800336
517.800,0.800307
517.900,0.800280
518.000,0.800253
518.100,0.800226
518.200,0.800196
518.300,0.800169
518.400,0.800141
518.500,0.800114
518.600,0.800088
518.700,0.800059
518.800,0.800033
518.900,0.800007
519.000,0.799981
519.100,0.799952
519.200,0.799925
519.300,0.799899
519.400,0.799872
519.500,0.799846
519.600,0.799816
519.700,0.799790
519.800,0.799763
519.900,0.799736
520.000,0.799706
520.100,0.799679
520.200,0.799653
520.300,0.799628
520.400,0.799601
520.500,0.799573
520.600,0.799546
520.700,0.799521
520.800,0.799494
520.900,0.799465
521.000,0.799438
521.100,0.799413
521.200,0.799386
521.300,0.799359
521.400,0.799330
521.500,0.799303
521.600,0.799276
521.700,0.799250
521.800,0.799221
521.900,0.799195
522.000,0.799170
522.100,0.799144
522.200,0.799118
522.300,0.799089
522.400,0.799063
522.500,0.799037
522.600,0.799010
522.700,0.798981
522.800,0.798955
522.900,0.798928
523.000,0.798902
523.100,0.798875
523.200,0.798846
523.300,0.798819
523.400,0.798793
523.500,0.798768
523.600,0.798742
523.700,0.798713
523.800,0.798687
523.900,0.798661
524.000,0.798635
524.100,0.798605
524.200,0.798580
524.300,0.798553
524.400,0.798527
524.500,0.798500
524.600,0.798471
524.700,0.798444
524.800,0.798418
524.900,0.798391
525.000,0.798362
525.100,0.798336
525.200,0.798310
525.300,0.798284
525.400,0.798258
525.500,0.798229
525.600,0.798202
525.700,0.798176
525.800,0.798149
525.900,0.798120
526.000,0.798094
526.100,0.798067
526.200,0.798040
526.300,0.798011
526.400,0.797984
526.500,0.797957
526.600,0.797931
526.700,0.797902
526.800,0.797876
526.900,0.797850
527.000,0.797823
527.100,0.797794
527.200,0.797767
527.300,0.797740
527.400,0.797713
527.500,0.797684
527.600,0.797657
527.700,0.797631
527.800,0.797603
527.900,0.797573
528.000,0.797546
528.100,0.797520
528.200,0.797492
528.300,0.797463
528.400,0.797436
528.500,0.797409
528.600,0.797383
528.700,0.797353
528.800,0.797326
528.900,0.797299
529.000,0.797272
529.100,0.797241
529.200,0.797215
529.300,0.797187
529.400,0.797160
529.500,0.797129
529.600,0.797102
529.700,0.797074
529.800,0.797047
529.900,0.797016
530.000,0.796990
530.100,0.796962
530.200,0.796934
530.300,0.796904
530.400,0.796876
530.500,0.796849
530.600,0.796821
530.700,0.796790
530.800,0.796762
530.900,0.796734
531.000,0.796706
531.100,0.796675
531.200,0.796647
531.300,0.796618
531.400,0.796587
531.500,0.796560
531.600,0.796531
531.700,0.796503
531.800,0.796473
531.900,0.796444
532.000,0.796416
532.100,0.796387
532.200,0.796356
532.300,0.796327
532.400,0.796298
532.500,0.796269
532.600,0.796238
532.700,0.796209
532.800,0.796181
532.900,0.796151
533.000,0.796119
533.100,0.796090
533.200,0.796061
533.300,0.796032
533.400,0.795999
533.500,0.795970
533.600,0.795940
533.700,0.795911
533.800,0.795878
533.900,0.795848
534.000,0.795819
534.100,0.795789
534.200,0.795757
534.300,0.795726
534.400,0.795696
534.500,0.795666
534.600,0.795633
534.700,0.795602
534.800,0.795573
534.900,0.795541
535.000,0.795508
535.100,0.795477
535.200,0.795447
535.300,0.795416
535.400,0.795382
535.500,0.795351
535.600,0.795320
535.700,0.795289
535.800,0.795255
535.900,0.795224
536.000,0.795192
536.100,0.795161
536.200,0.795126
536.300,0.795095
536.400,0.795062
536.500,0.795027
536.600,0.794995
536.700,0.794963
536.800,0.794931
536.900,0.794895
537.000,0.794863
537.100,0.794831
537.200,0.794798
537.300,0.794762
537.400,0.794729
537.500,0.794697
537.600,0.794663
537.700,0.794627
537.800,0.794594
537.900,0.794561
538.000,0.794526
538.100,0.794489
538.200,0.794455
538.300,0.794421
538.400,0.794386
538.500,0.794349
538.600,0.794315
538.700,0.794280
538.800,0.794246
538.900,0.794208
539.000,0.794173
539.100,0.794138
539.200,0.794104
539.300,0.794065
539.400,0.794029
539.500,0.793994
539.600,0.793957
539.700,0.793918
539.800,0.793881
539.900,0.793845
540.000,0.793808
540.100,0.793769
540.200,0.793731
540.300,0.793695
540.400,0.793658
540.500,0.793617
540.600,0.793580
540.700,0.793542
540.800,0.793505
540.900,0.793464
541.000,0.793425
541.100,0.793386
541.200,0.793347
541.300,0.793306
541.400,0.793265
541.500,0.793226
541.600,0.793182
541.700,0.793143
541.800,0.793103
541.900,0.793063
542.000,0.793020
542.100,0.792980
542.200,0.792939
542.300,0.792898
542.400,0.792855
542.500,0.792812
542.600,0.792771
542.700,0.792728
542.800,0.792683
542.900,0.792639
543.000,0.792596
543.100,0.792552
543.200,0.792505
543.300,0.792461
543.400,0.792417
543.500,0.792373
543.600,0.792326
543.700,0.792281
543.800,0.792237
543.900,0.792192
544.000,0.792144
544.100,0.792098
544.200,0.792051
544.300,0.792004
544.400,0.791953
544.500,0.791906
544.600,0.791858
544.700,0.791810
544.800,0.791757
544.900,0.791709
545.000,0.791660
545.100,0.791611
545.200,0.791558
545.300,0.791509
545.400,0.791460
545.500,0.791409
545.600,0.791357
545.700,0.791305
545.800,0.791254
545.900,0.791202
546.000,0.791146
546.100,0.791093
546.200,0.791039
546.300,0.790986
546.400,0.790928
546.500,0.790874
546.600,0.790820
546.700,0.790765
546.800,0.790711
546.900,0.790656
547.000,0.790601
547.100,0.790545
547.200,0.790486
547.300,0.790429
547.400,0.790371
547.500,0.790314
547.600,0.790255
547.700,0.790195
547.800,0.790135
547.900,0.790076
548.000,0.790016
548.100,0.789955
548.200,0.789894
548.300,0.789832
548.400,0.789772
548.500,0.789710
548.600,0.789644
548.700,0.789582
548.800,0.789520
548.900,0.789456
549.000,0.789392
549.100,0.789327
549.200,0.789261
549.300,0.789195
549.400,0.789129
549.500,0.789061
549.600,0.788994
549.700,0.788926
549.800,0.788858
549.900,0.788787
550.000,0.788718
550.100,0.788649
550.200,0.788580
550.300,0.788509
550.400,0.788439
550.500,0.788369
550.600,0.788298
550.700,0.788225
550.800,0.788151
550.900,0.788076
551.000,0.788001
551.100,0.787925
551.200,0.787846
551.300,0.787770
551.400,0.787693
551.500,0.787617
551.600,0.787539
551.700,0.787462
551.800,0.787384
551.900,0.787305
552.000,0.787227
552.100,0.787146
552.200,0.787066
552.300,0.786985
552.400,0.786902
552.500,0.786818
552.600,0.786730
552.700,0.786647
552.800,0.786562
552.900,0.786476
553.000,0.786391
553.100,0.786305
553.200,0.786218
553.300,0.786130
553.400,0.786044
553.500,0.785955
553.600,0.785866
553.700,0.785778
553.800,0.785687
553.900,0.785592
554.000,0.785499
554.100,0.785407
554.200,0.785313
554.300,0.785218
554.400,0.785124
554.500,0.785027
554.600,0.784933
554.700,0.784836
554.800,0.784740
554.900,0.784642
555.000,0.784543
555.100,0.784446
555.200,0.784342
555.300,0.784244
555.400,0.784144
555.500,0.784041
555.600,0.783939
555.700,0.783834
555.800,0.783732
555.900,0.783627
556.000,0.783521
556.100,0.783416
556.200,0.783309
556.300,0.783202
556.400,0.783095
556.500,0.782987
556.600,0.782876
556.700,0.782765
556.800,0.782656
556.900,0.782547
557.000,0.782437
557.100,0.782324
557.200,0.782210
557.300,0.782099
557.400,0.781984
557.500,0.781868
557.600,0.781755
557.700,0.781638
557.800,0.781521
557.900,0.781401
558.000,0.781284
558.100,0.781166
558.200,0.781045
558.300,0.780928
558.400,0.780808
558.500,0.780689
558.600,0.780569
558.700,0.780448
558.800,0.780326
558.900,0.780204
559.000,0.780080
559.100,0.779958
559.200,0.779829
559.300,0.779706
559.400,0.779579
559.500,0.779454
559.600,0.779328
559.700,0.779201
559.800,0.779074
559.900,0.778945
560.000,0.778819
560.100,0.778692
560.200,0.778562
560.300,0.778435
560.400,0.778306
560.500,0.778178
560.600,0.778045
560.700,0.777914
560.800,0.777786
560.900,0.777654
561.000,0.777523
561.100,0.777391
561.200,0.777257
561.300,0.777125
561.400,0.776991
561.500,0.776858
561.600,0.776728
561.700,0.776594
561.800,0.776463
561.900,0.776329
562.000,0.776198
562.100,0.776066
562.200,0.775935
562.300,0.775803
562.400,0.775671
562.500,0.775537
562.600,0.775406
562.700,0.775272
562.800,0.775138
562.900,0.775004
563.000,0.774870
563.100,0.774738
563.200,0.774600
563.300,0.774470
563.400,0.774339
563.500,0.774211
563.600,0.774085
563.700,0.773956
563.800,0.773827
563.900,0.773699
564.000,0.773571
564.100,0.773444
564.200,0.773315
564.300,0.773188
564.400,0.773058
564.500,0.772930
564.600,0.772800
564.700,0.772671
564.800,0.772548
564.900,0.772425
565.000,0.772303
565.100,0.772185
565.200,0.772068
565.300,0.771952
565.400,0.771839
565.500,0.771720
565.600,0.771604
565.700,0.771487
565.800,0.771373
565.900,0.771261
566.000,0.771144
566.100,0.771030
566.200,0.770916
566.300,0.770805
566.400,0.770699
566.500,0.770587
566.600,0.770487
566.700,0.770391
566.800,0.770294
566.900,0.770199
567.000,0.770104
567.100,0.770010
567.200,0.769918
567.300,0.769825
567.400,0.769732
567.500,0.769641
567.600,0.769551
567.700,0.769464
567.800,0.769374
567.900,0.769291
568.000,0.769208
568.100,0.769132
568.200,0.769062
568.300,0.768992
568.400,0.768929
568.500,0.768868
568.600,0.768804
568.700,0.768743
568.800,0.768680
568.900,0.768624
569.000,0.768567
569.100,0.768505
569.200,0.768450
569.300,0.768395
569.400,0.768346
569.500,0.768299
569.600,0.768253
569.700,0.768216
569.800,0.768188
569.900,0.768159
570.000,0.768138
570.100,0.768111
570.200,0.768094
570.300,0.768074
570.400,0.768055
570.500,0.768044
570.600,0.768029
570.700,0.768016
570.800,0.768006
570.900,0.767994
571.000,0.767992
571.100,0.767989
571.200,0.767992
571.300,0.768002
571.400,0.768017
571.500,0.768043
571.600,0.768066
571.700,0.768089
571.800,0.768120
571.900,0.768152
572.000,0.768179
572.100,0.768218
572.200,0.768251
572.300,0.768290
572.400,0.768336
572.500,0.768374
572.600,0.768421
572.700,0.768474
572.800,0.768527
572.900,0.768592
573.000,0.768656
573.100,0.768734
573.200,0.768814
573.300,0.768887
573.400,0.768971
573.500,0.769056
573.600,0.769136
573.700,0.769227
573.800,0.769311
573.900,0.769403
574.000,0.769501
574.100,0.769590
574.200,0.769689
574.300,0.769794
574.400,0.769900
574.500,0.770017
574.600,0.770131
574.700,0.770258
574.800,0.770389
574.900,0.770513
575.000,0.770646
575.100,0.770778
575.200,0.770908
575.300,0.771047
575.400,0.771180
575.500,0.771321
575.600,0.771467
575.700,0.771606
575.800,0.771753
575.900,0.771912
576.000,0.772061
576.100,0.772228
576.200,0.772385
576.300,0.772554
576.400,0.772725
576.500,0.772890
576.600,0.773063
576.700,0.773238
576.800,0.773405
576.900,0.773588
577.000,0.773758
577.100,0.773941
577.200,0.774127
577.300,0.774305
577.400,0.774491
577.500,0.774689
577.600,0.774874
577.700,0.775073
577.800,0.775273
577.900,0.775462
578.000,0.775664
578.100,0.775857
578.200,0.776060
578.300,0.776267
578.400,0.776462
578.500,0.776675
578.600,0.776881
578.700,0.777082
578.800,0.777293
578.900,0.777500
579.000,0.777711
579.100,0.777932
579.200,0.778139
579.300,0.778359
579.400,0.778575
579.500,0.778781
579.600,0.779002
579.700,0.779218
579.800,0.779429
579.900,0.779652
580.000,0.779862
580.100,0.780088
580.200,0.780309
580.300,0.780525
580.400,0.780749
580.500,0.780976
580.600,0.781194
580.700,0.781422
580.800,0.781649
580.900,0.781862
581.000,0.782081
581.100,0.782291
581.200,0.782514
581.300,0.782736
581.400,0.782946
581.500,0.783171
581.600,0.783393
581.700,0.783606
581.800,0.783828
581.900,0.784052
582.000,0.784267
582.100,0.784491
582.200,0.784707
582.300,0.784930
582.400,0.785153
582.500,0.785358
582.600,0.785572
582.700,0.785782
582.800,0.785984
582.900,0.786198
583.000,0.786407
583.100,0.786614
583.200,0.786824
583.300,0.787037
583.400,0.787241
583.500,0.787455
583.600,0.787659
583.700,0.787873
583.800,0.788085
583.900,0.788285
584.000,0.788490
584.100,0.788685
584.200,0.788871
584.300,0.789063
584.400,0.789256
584.500,0.789437
584.600,0.789631
584.700,0.789826
584.800,0.790008
584.900,0.790201
585.000,0.790386
585.100,0.790579
585.200,0.790773
585.300,0.790956
585.400,0.791149
585.500,0.791329
585.600,0.791498
585.700,0.791667
585.800,0.791836
585.900,0.791993
586.000,0.792161
586.100,0.792328
586.200,0.792487
586.300,0.792656
586.400,0.792815
586.500,0.792978
586.600,0.793146
586.700,0.793303
586.800,0.793471
586.900,0.793636
587.000,0.793795
587.100,0.793936
587.200,0.794083
587.300,0.794205
587.400,0.794342
587.500,0.794473
587.600,0.794599
587.700,0.794731
587.800,0.794866
587.900,0.794987
588.000,0.795123
588.100,0.795248
588.200,0.795380
588.300,0.795511
588.400,0.795635
588.500,0.795768
588.600,0.795897
588.700,0.796000
588.800,0.796110
588.900,0.796214
589.000,0.796305
589.100,0.796408
589.200,0.796512
589.300,0.796606
589.400,0.796709
589.500,0.796813
589.600,0.796907
589.700,0.797009
589.800,0.797113
589.900,0.797207
590.000,0.797307
590.100,0.797402
590.200,0.797500
590.300,0.797587
590.400,0.797666
590.500,0.797749
590.600,0.797829
590.700,0.797902
590.800,0.797985
590.900,0.798068
591.000,0.798140
591.100,0.798223
591.200,0.798303
591.300,0.798380
591.400,0.798460
591.500,0.798543
591.600,0.798614
591.700,0.798700
591.800,0.798774
591.900,0.798836
592.000,0.798904
592.100,0.798970
592.200,0.799027
592.300,0.799091
592.400,0.799161
592.500,0.799215
592.600,0.799285
592.700,0.799339
592.800,0.799409
592.900,0.799473
593.000,0.799533
593.100,0.799598
593.200,0.799667
593.300,0.799726
593.400,0.799789
593.500,0.799843
593.600,0.799887
593.700,0.799940
593.800,0.799999
593.900,0.800044
594.000,0.800100
594.100,0.800153
594.200,0.800204
594.300,0.800258
594.400,0.800315
594.500,0.800359
594.600,0.800419
594.700,0.800474
594.800,0.800522
594.900,0.800579
595.000,0.800630
595.100,0.800665
595.200,0.800714
595.300,0.800759
595.400,0.800799
595.500,0.800846
595.600,0.800894
595.700,0.800937
595.800,0.800985
595.900,0.801034
596.000,0.801073
596.100,0.801126
596.200,0.801174
596.300,0.801215
596.400,0.801264
596.500,0.801317
596.600,0.801351
596.700,0.801390
596.800,0.801434
596.900,0.801471
597.000,0.801517
597.100,0.801552
597.200,0.801598
597.300,0.801645
597.400,0.801682
597.500,0.801729
597.600,0.801776
597.700,0.801815
597.800,0.801863
597.900,0.801910
598.000,0.801949
598.100,0.801996
598.200,0.802039
598.300,0.802069
598.400,0.802112
598.500,0.802162
598.600,0.802201
598.700,0.802248
598.800,0.802296
598.900,0.802332
599.000,0.802382
599.100,0.802429
599.200,0.802470
599.300,0.802517
599.400,0.802568
599.500,0.802609
599.600,0.802661
599.700,0.802709
599.800,0.802745
599.900,0.802786
600.000,0.802838
600.100,0.802881
600.200,0.802935
600.300,0.802988
600.400,0.803037
600.500,0.803090
600.600,0.803145
600.700,0.803188
600.800,0.803244
600.900,0.803299
601.000,0.803346
601.100,0.803402
601.200,0.803460
601.300,0.803504
601.400,0.803563
601.500,0.803611
601.600,0.803668
601.700,0.803729
601.800,0.803796
601.900,0.803852
602.000,0.803915
602.100,0.803984
602.200,0.804038
602.300,0.804108
602.400,0.804172
602.500,0.804232
602.600,0.804300
602.700,0.804369
602.800,0.804428
602.900,0.804497
603.000,0.804568
603.100,0.804637
603.200,0.804707
603.300,0.804791
603.400,0.804873
603.500,0.804947
603.600,0.805027
603.700,0.805113
603.800,0.805187
603.900,0.805276
604.000,0.805362
604.100,0.805434
604.200,0.805521
604.300,0.805612
604.400,0.805689
604.500,0.805780
604.600,0.805871
604.700,0.805953
604.800,0.806058
604.900,0.806167
605.000,0.806260
605.100,0.806370
605.200,0.806479
605.300,0.806577
605.400,0.806686
605.500,0.806797
605.600,0.806901
605.700,0.807014
605.800,0.807127
605.900,0.807228
606.000,0.807346
606.100,0.807464
606.200,0.807574
606.300,0.807702
606.400,0.807844
606.500,0.807972
606.600,0.808111
606.700,0.808254
606.800,0.808388
606.900,0.808530
607.000,0.808680
607.100,0.808811
607.200,0.808960
607.300,0.809111
607.400,0.809263
607.500,0.809397
607.600,0.809553
607.700,0.809705
607.800,0.809861
607.900,0.810037
608.000,0.810221
608.100,0.810392
608.200,0.810581
608.300,0.810767
608.400,0.810946
608.500,0.811137
608.600,0.811327
608.700,0.811509
608.800,0.811703
608.900,0.811897
609.000,0.812082
609.100,0.812283
609.200,0.812483
609.300,0.812672
609.400,0.812901
609.500,0.813130
609.600,0.813358
609.700,0.813601
609.800,0.813840
609.900,0.814073
610.000,0.814314
610.100,0.814564
610.200,0.814812
610.300,0.815055
610.400,0.815305
610.500,0.815563
610.600,0.815804
610.700,0.816066
610.800,0.816324
610.900,0.816576
611.000,0.816874
611.100,0.817174
611.200,0.817470
611.300,0.817777
611.400,0.818092
611.500,0.818388
611.600,0.818705
611.700,0.819025
611.800,0.819331
611.900,0.819654
612.000,0.819980
612.100,0.820307
612.200,0.820626
612.300,0.820955
612.400,0.821293
612.500,0.821620
612.600,0.821999
612.700,0.822387
612.800,0.822764
612.900,0.823151
613.000,0.823547
613.100,0.823935
613.200,0.824334
613.300,0.824738
613.400,0.825127
613.500,0.825535
613.600,0.825948
613.700,0.826350
613.800,0.826766
613.900,0.827184
614.000,0.827611
614.100,0.828026
614.200,0.828503
614.300,0.828976
614.400,0.829441
614.500,0.829922
614.600,0.830405
614.700,0.830875
614.800,0.831364
614.900,0.831861
615.000,0.832340
615.100,0.832838
615.200,0.833338
615.300,0.833828
615.400,0.834335
615.500,0.834843
615.600,0.835362
615.700,0.835872
615.800,0.836438
615.900,0.837007
616.000,0.837565
616.100,0.838138
616.200,0.838712
616.300,0.839278
616.400,0.839860
616.500,0.840449
616.600,0.841016
616.700,0.841607
616.800,0.842200
616.900,0.842783
617.000,0.843382
617.100,0.843975
617.200,0.844583
617.300,0.845192
617.400,0.845852
617.500,0.846503
617.600,0.847150
617.700,0.847807
617.800,0.848465
617.900,0.849123
618.000,0.849785
618.100,0.850459
618.200,0.851113
618.300,0.851786
618.400,0.852462
618.500,0.853139
618.600,0.853804
618.700,0.854489
618.800,0.855170
618.900,0.855862
619.000,0.856583
619.100,0.857305
619.200,0.858016
619.300,0.858741
619.400,0.859463
619.500,0.860180
619.600,0.860906
619.700,0.861635
619.800,0.862363
619.900,0.863084
620.000,0.863817
620.100,0.864548
620.200,0.865272
620.300,0.866009
620.400,0.866743
620.500,0.867484
620.600,0.868250
620.700,0.869007
620.800,0.869756
620.900,0.870518
621.000,0.871275
621.100,0.872035
621.200,0.872780
621.300,0.873544
621.400,0.874305
621.500,0.875050
621.600,0.875816
621.700,0.876571
621.800,0.877323
621.900,0.878080
622.000,0.878838
622.100,0.879612
622.200,0.880358
622.300,0.881121
622.400,0.881872
622.500,0.882623
622.600,0.883377
622.700,0.884128
622.800,0.884870
622.900,0.885619
623.000,0.886373
623.100,0.887123
623.200,0.887863
623.300,0.888608
623.400,0.889350
623.500,0.890086
623.600,0.890830
623.700,0.891573
623.800,0.892284
623.900,0.893007
624.000,0.893727
624.100,0.894444
624.200,0.895150
624.300,0.895856
624.400,0.896574
624.500,0.897272
624.600,0.897983
624.700,0.898685
624.800,0.899378
624.900,0.900078
625.000,0.900775
625.100,0.901466
625.200,0.902158
625.300,0.902837
625.400,0.903490
625.500,0.904138
625.600,0.904786
625.700,0.905440
625.800,0.906076
625.900,0.906717
626.000,0.907356
626.100,0.907993
626.200,0.908620
626.300,0.909251
626.400,0.909881
626.500,0.910500
626.600,0.911128
626.700,0.911746
626.800,0.912357
626.900,0.912947
627.000,0.913508
627.100,0.914070
627.200,0.914621
627.300,0.915170
627.400,0.915723
627.500,0.916266
627.600,0.916812
627.700,0.917354
627.800,0.917891
627.900,0.918428
628.000,0.918962
628.100,0.919496
628.200,0.920013
628.300,0.920539
628.400,0.921066
628.500,0.921543
628.600,0.922000
628.700,0.922459
628.800,0.922911
628.900,0.923358
629.000,0.923808
629.100,0.924251
629.200,0.924694
629.300,0.925129
629.400,0.925570
629.500,0.925996
629.600,0.926431
629.700,0.926866
629.800,0.927286
629.900,0.927709
630.000,0.928131
630.100,0.928499
630.200,0.928847
630.300,0.929193
630.400,0.929543
630.500,0.929883
630.600,0.930219
630.700,0.930561
630.800,0.930896
630.900,0.931229
631.000,0.931556
631.100,0.931890
631.200,0.932209
631.300,0.932533
631.400,0.932860
631.500,0.933178
631.600,0.933495
631.700,0.933748
631.800,0.933994
631.900,0.934233
632.000,0.934473
632.100,0.934711
632.200,0.934950
632.300,0.935179
632.400,0.935413
632.500,0.935644
632.600,0.935871
632.700,0.936094
632.800,0.936319
632.900,0.936546
633.000,0.936764
633.100,0.936980
633.200,0.937200
633.300,0.937344
633.400,0.937489
633.500,0.937627
633.600,0.937768
633.700,0.937907
633.800,0.938047
633.900,0.938180
634.000,0.938308
634.100,0.938442
634.200,0.938575
634.300,0.938703
634.400,0.938831
634.500,0.938960
634.600,0.939077
634.700,0.939199
634.800,0.939317
634.900,0.939371
635.000,0.939420
635.100,0.939471
635.200,0.939520
635.300,0.939562
635.400,0.939607
635.500,0.939650
635.600,0.939694
635.700,0.939735
635.800,0.939771
635.900,0.939811
636.000,0.939850
636.100,0.939886
636.200,0.939923
636.300,0.939954
636.400,0.939976
636.500,0.939942
636.600,0.939909
636.700,0.939872
636.800,0.939832
636.900,0.939794
637.000,0.939753
637.100,0.939711
637.200,0.939672
637.300,0.939628
637.400,0.939585
637.500,0.939539
637.600,0.939493
637.700,0.939445
637.800,0.939396
637.900,0.939350
638.000,0.939285
638.100,0.939173
638.200,0.939056
638.300,0.938941
638.400,0.938829
638.500,0.938710
638.600,0.938592
638.700,0.938476
638.800,0.938356
638.900,0.938235
639.000,0.938118
639.100,0.937996
639.200,0.937873
639.300,0.937751
639.400,0.937627
639.500,0.937501
639.600,0.937365
639.700,0.937178
639.800,0.936995
639.900,0.936809
640.000,0.936621
640.100,0.936435
640.200,0.936249
640.300,0.936063
640.400,0.935876
640.500,0.935688
640.600,0.935500
640.700,0.935308
640.800,0.935119
640.900,0.934929
641.000,0.934735
641.100,0.934548
641.200,0.934335
641.300,0.934088
641.400,0.933845
641.500,0.933598
641.600,0.933351
641.700,0.933107
641.800,0.932859
641.900,0.932608
642.000,0.932365
642.100,0.932116
642.200,0.931867
642.300,0.931622
642.400,0.931373
642.500,0.931123
642.600,0.930875
642.700,0.930624
642.800,0.930360
642.900,0.930071
643.000,0.929782
643.100,0.929493
643.200,0.929205
643.300,0.928919
643.400,0.928631
643.500,0.928342
643.600,0.928053
643.700,0.927765
643.800,0.927477
643.900,0.927188
644.000,0.926903
644.100,0.926614
644.200,0.926326
644.300,0.926038
644.400,0.925742
644.500,0.925430
644.600,0.925121
644.700,0.924814
644.800,0.924505
644.900,0.924199
645.000,0.923893
645.100,0.923581
645.200,0.923275
645.300,0.922971
645.400,0.922664
645.500,0.922359
645.600,0.922055
645.700,0.921749
645.800,0.921442
645.900,0.921136
646.000,0.920828
646.100,0.920515
646.200,0.920202
646.300,0.919890
646.400,0.919577
646.500,0.919265
646.600,0.918955
646.700,0.918640
646.800,0.918331
646.900,0.918025
647.000,0.917716
647.100,0.917405
647.200,0.917097
647.300,0.916794
647.400,0.916487
647.500,0.916178
647.600,0.915876
647.700,0.915578
647.800,0.915280
647.900,0.914982
648.000,0.914685
648.100,0.914389
648.200,0.914092
648.300,0.913797
648.400,0.913503
648.500,0.913205
648.600,0.912914
648.700,0.912622
648.800,0.912330
648.900,0.912040
649.000,0.911750
649.100,0.911460
649.200,0.911185
649.300,0.910924
649.400,0.910663
649.500,0.910400
649.600,0.910140
649.700,0.909881
649.800,0.909620
649.900,0.909362
650.000,0.909106
650.100,0.908846
650.200,0.908589
650.300,0.908333
650.400,0.908073
650.500,0.907818
650.600,0.907564
650.700,0.907308
650.800,0.907095
650.900,0.906893
651.000,0.906689
651.100,0.906487
651.200,0.906288
651.300,0.906083
651.400,0.905884
651.500,0.905684
651.600,0.905486
651.700,0.905282
651.800,0.905084
651.900,0.904885
652.000,0.904684
652.100,0.904485
652.200,0.904288
652.300,0.904087
652.400,0.903954
652.500,0.903835
652.600,0.903715
652.700,0.903594
652.800,0.903474
652.900,0.903351
653.000,0.903233
653.100,0.903109
653.200,0.902989
653.300,0.902867
653.400,0.902747
653.500,0.902628
653.600,0.902504
653.700,0.902383
653.800,0.902261
653.900,0.902140
654.000,0.902104
654.100,0.902083
654.200,0.902060
654.300,0.902037
654.400,0.902015
654.500,0.901992
654.600,0.901971
654.700,0.901947
654.800,0.901922
654.900,0.901900
655.000,0.901874
655.100,0.901849
655.200,0.901823
655.300,0.901799
655.400,0.901771
655.500,0.901744
655.600,0.901825
655.700,0.901917
655.800,0.902007
655.900,0.902097
656.000,0.902184
656.100,0.902274
656.200,0.902360
656.300,0.902447
656.400,0.902536
656.500,0.902620
656.600,0.902708
656.700,0.902792
656.800,0.902881
656.900,0.902964
657.000,0.903050
657.100,0.903131
657.200,0.903338
657.300,0.903546
657.400,0.903749
657.500,0.903958
657.600,0.904165
657.700,0.904372
657.800,0.904575
657.900,0.904782
658.000,0.904989
658.100,0.905199
658.200,0.905406
658.300,0.905608
658.400,0.905815
658.500,0.906022
658.600,0.906229
658.700,0.906443
658.800,0.906758
658.900,0.907077
659.000,0.907394
659.100,0.907711
659.200,0.908030
659.300,0.908349
659.400,0.908667
659.500,0.908987
659.600,0.909308
659.700,0.909629
659.800,0.909954
659.900,0.910279
660.000,0.910602
660.100,0.910926
660.200,0.911249
660.300,0.911582
660.400,0.911995
660.500,0.912407
660.600,0.912821
660.700,0.913235
660.800,0.913653
660.900,0.914068
661.000,0.914488
661.100,0.914908
661.200,0.915331
661.300,0.915750
661.400,0.916171
661.500,0.916597
661.600,0.917021
661.700,0.917448
661.800,0.917873
661.900,0.918313
662.000,0.918789
662.100,0.919265
662.200,0.919742
662.300,0.920218
662.400,0.920699
662.500,0.921180
662.600,0.921663
662.700,0.922147
662.800,0.922636
662.900,0.923122
663.000,0.923606
663.100,0.924096
663.200,0.924587
663.300,0.925078
663.400,0.925572
663.500,0.926067
663.600,0.926568
663.700,0.927074
663.800,0.927582
663.900,0.928087
664.000,0.928596
664.100,0.929103
664.200,0.929616
664.300,0.930125
664.400,0.930638
664.500,0.931149
664.600,0.931666
664.700,0.932180
664.800,0.932697
664.900,0.933218
665.000,0.933737
665.100,0.934251
665.200,0.934746
665.300,0.935246
665.400,0.935747
665.500,0.936249
665.600,0.936751
665.700,0.937249
665.800,0.937753
665.900,0.938258
666.000,0.938764
666.100,0.939269
666.200,0.939772
666.300,0.940280
666.400,0.940788
666.500,0.941297
666.600,0.941807
666.700,0.942295
666.800,0.942761
666.900,0.943223
667.000,0.943691
667.100,0.944153
667.200,0.944621
667.300,0.945085
667.400,0.945553
667.500,0.946018
667.600,0.946488
667.700,0.946952
667.800,0.947423
667.900,0.947893
668.000,0.948360
668.100,0.948832
668.200,0.949299
668.300,0.949743
668.400,0.950164
668.500,0.950580
668.600,0.950996
668.700,0.951412
668.800,0.951828
668.900,0.952245
669.000,0.952666
669.100,0.953084
669.200,0.953500
669.300,0.953918
669.400,0.954336
669.500,0.954758
669.600,0.955176
669.700,0.955598
669.800,0.956016
669.900,0.956405
670.000,0.956765
670.100,0.957125
670.200,0.957490
670.300,0.957849
670.400,0.958214
670.500,0.958574
670.600,0.958934
670.700,0.959300
670.800,0.959659
670.900,0.960024
671.000,0.960385
671.100,0.960745
671.200,0.961111
671.300,0.961471
671.400,0.961832
671.500,0.962163
671.600,0.962468
671.700,0.962779
671.800,0.963085
671.900,0.963395
672.000,0.963701
672.100,0.964006
672.200,0.964316
672.300,0.964623
672.400,0.964932
672.500,0.965238
672.600,0.965543
672.700,0.965855
672.800,0.966161
672.900,0.966471
673.000,0.966777
673.100,0.967053
673.200,0.967307
673.300,0.967568
673.400,0.967822
673.500,0.968082
673.600,0.968343
673.700,0.968597
673.800,0.968857
673.900,0.969112
674.000,0.969372
674.100,0.969632
674.200,0.969886
674.300,0.970147
674.400,0.970403
674.500,0.970662
674.600,0.970922
674.700,0.971147
674.800,0.971361
674.900,0.971575
675.000,0.971793
675.100,0.972007
675.200,0.972222
675.300,0.972435
675.400,0.972654
675.500,0.972868
675.600,0.973081
675.700,0.973296
675.800,0.973514
675.900,0.973729
676.000,0.973942
676.100,0.974156
676.200,0.974376
676.300,0.974559
676.400,0.974737
676.500,0.974914
676.600,0.975091
676.700,0.975270
676.800,0.975447
676.900,0.975625
677.000,0.975802
677.100,0.975980
677.200,0.976158
677.300,0.976335
677.400,0.976513
677.500,0.976692
677.600,0.976869
677.700,0.977053
677.800,0.977231
677.900,0.977378
678.000,0.977524
678.100,0.977670
678.200,0.977817
678.300,0.977964
678.400,0.978110
678.500,0.978257
678.600,0.978404
678.700,0.978549
678.800,0.978697
678.900,0.978843
679.000,0.978990
679.100,0.979137
679.200,0.979285
679.300,0.979432
679.400,0.979580
679.500,0.979701
679.600,0.979823
679.700,0.979944
679.800,0.980064
679.900,0.980185
680.000,0.980307
680.100,0.980428
680.200,0.980548
680.300,0.980670
680.400,0.980792
680.500,0.980913
680.600,0.981034
680.700,0.981155
680.800,0.981277
680.900,0.981399
681.000,0.981520
681.100,0.981620
681.200,0.981716
681.300,0.981816
681.400,0.981916
681.500,0.982015
681.600,0.982117
681.700,0.982211
681.800,0.982311
681.900,0.982411
682.000,0.982512
682.100,0.982608
682.200,0.982708
682.300,0.982808
682.400,0.982908
682.500,0.983010
682.600,0.983105
682.700,0.983183
682.800,0.983267
682.900,0.983348
683.000,0.983426
683.100,0.983510
683.200,0.983589
683.300,0.983674
683.400,0.983752
683.500,0.983831
683.600,0.983915
683.700,0.983996
683.800,0.984081
683.900,0.984159
684.000,0.984238
684.100,0.984324
684.200,0.984397
684.300,0.984465
684.400,0.984527
684.500,0.984597
684.600,0.984661
684.700,0.984728
684.800,0.984791
684.900,0.984859
685.000,0.984923
685.100,0.984985
685.200,0.985053
685.300,0.985116
685.400,0.985187
685.500,0.985253
685.600,0.985322
685.700,0.985385
685.800,0.985449
685.900,0.985500
686.000,0.985552
686.100,0.985603
686.200,0.985656
686.300,0.985709
686.400,0.985761
686.500,0.985812
686.600,0.985865
686.700,0.985916
686.800,0.985968
686.900,0.986020
687.000,0.986071
687.100,0.986126
687.200,0.986178
687.300,0.986229
687.400,0.986275
687.500,0.986317
687.600,0.986357
687.700,0.986398
687.800,0.986438
687.900,0.986479
688.000,0.986521
688.100,0.986562
688.200,0.986602
688.300,0.986644
688.400,0.986684
688.500,0.986724
688.600,0.986764
688.700,0.986806
688.800,0.986848
688.900,0.986888
689.000,0.986922
689.100,0.986957
689.200,0.986988
689.300,0.987017
689.400,0.987045
689.500,0.987073
689.600,0.987110
689.700,0.987140
689.800,0.987168
689.900,0.987197
690.000,0.987233
690.100,0.987262
690.200,0.987290
690.300,0.987318
690.400,0.987355
690.500,0.987385
690.600,0.987408
690.700,0.987430
690.800,0.987453
690.900,0.987477
691.000,0.987500
691.100,0.987523
691.200,0.987545
691.300,0.987563
691.400,0.987587
691.500,0.987609
691.600,0.987632
691.700,0.987656
691.800,0.987678
691.900,0.987694
692.000,0.987717
692.100,0.987741
692.200,0.987759
692.300,0.987775
692.400,0.987792
692.500,0.987802
692.600,0.987819
692.700,0.987830
692.800,0.987846
692.900,0.987862
693.000,0.987873
693.100,0.987891
693.200,0.987901
693.300,0.987917
693.400,0.987935
693.500,0.987944
693.600,0.987960
693.700,0.987969
693.800,0.987979
693.900,0.987993
694.000,0.988002
694.100,0.988006
694.200,0.988016
694.300,0.988020
694.400,0.988030
694.500,0.988033
694.600,0.988042
694.700,0.988054
694.800,0.988059
694.900,0.988067
695.000,0.988070
695.100,0.988081
695.200,0.988091
695.300,0.988093
695.400,0.988095
695.500,0.988099
695.600,0.988106
695.700,0.988101
695.800,0.988104
695.900,0.988106
696.000,0.988103
696.100,0.988106
696.200,0.988109
696.300,0.988111
696.400,0.988108
696.500,0.988111
696.600,0.988114
696.700,0.988109
696.800,0.988111
696.900,0.988115
697.000,0.988111
697.100,0.988105
697.200,0.988101
697.300,0.988101
697.400,0.988095
697.500,0.988090
697.600,0.988086
697.700,0.988080
697.800,0.988077
697.900,0.988071
698.000,0.988066
698.100,0.988053
698.200,0.988052
698.300,0.988047
698.400,0.988041
698.500,0.988035
698.600,0.988032
698.700,0.988019
698.800,0.988006
698.900,0.987993
699.000,0.987990
699.100,0.987979
699.200,0.987966
699.300,0.987960
699.400,0.987946
699.500,0.987935
699.600,0.987921
699.700,0.987915
699.800,0.987901
699.900,0.987892
700.000,0.987878
700.100,0.987871
700.200,0.987849
700.300,0.987836
700.400,0.987824
700.500,0.987810
700.600,0.987796
700.700,0.987776
700.800,0.987765
700.900,0.987750
701.000,0.987735
701.100,0.987713
701.200,0.987698
701.300,0.987688
701.400,0.987672
701.500,0.987657
701.600,0.987637
701.700,0.987624
701.800,0.987602
701.900,0.987590
702.000,0.987566
702.100,0.987546
702.200,0.987526
702.300,0.987510
702.400,0.987487
702.500,0.987465
702.600,0.987444
702.700,0.987428
702.800,0.987407
702.900,0.987382
703.000,0.987369
703.100,0.987348
703.200,0.987323
703.300,0.987298
703.400,0.987277
703.500,0.987255
703.600,0.987234
703.700,0.987210
703.800,0.987184
703.900,0.987166
704.000,0.987140
704.100,0.987107
704.200,0.987085
704.300,0.987059
704.400,0.987037
704.500,0.987014
704.600,0.986988
704.700,0.986962
704.800,0.986942
704.900,0.986907
705.000,0.986881
705.100,0.986849
705.200,0.986827
705.300,0.986792
705.400,0.986769
705.500,0.986733
705.600,0.986706
705.700,0.986686
705.800,0.986650
705.900,0.986622
706.000,0.986590
706.100,0.986565
706.200,0.986528
706.300,0.986503
706.400,0.986467
706.500,0.986439
706.600,0.986409
706.700,0.986372
706.800,0.986335
706.900,0.986302
707.000,0.986277
707.100,0.986239
707.200,0.986205
707.300,0.986167
707.400,0.986130
707.500,0.986108
707.600,0.986068
707.700,0.986030
707.800,0.985994
707.900,0.985959
708.000,0.985933
708.100,0.985893
708.200,0.985845
708.300,0.985809
708.400,0.985774
708.500,0.985735
708.600,0.985698
708.700,0.985658
708.800,0.985621
708.900,0.985585
709.000,0.985545
709.100,0.985493
709.200,0.985457
709.300,0.985418
709.400,0.985377
709.500,0.985341
709.600,0.985298
709.700,0.985260
709.800,0.985214
709.900,0.985171
710.000,0.985130
710.100,0.985082
710.200,0.985043
710.300,0.985000
710.400,0.984962
710.500,0.984910
710.600,0.984865
710.700,0.984831
710.800,0.984777
710.900,0.984734
711.000,0.984693
711.100,0.984643
711.200,0.984599
711.300,0.984559
711.400,0.984504
711.500,0.984460
711.600,0.984413
711.700,0.984358
711.800,0.984312
711.900,0.984261
712.000,0.984220
712.100,0.984163
712.200,0.984121
712.300,0.984064
712.400,0.984018
712.500,0.983969
712.600,0.983912
712.700,0.983869
712.800,0.983811
712.900,0.983767
713.000,0.983714
713.100,0.983655
713.200,0.983597
713.300,0.983553
713.400,0.983498
713.500,0.983440
713.600,0.983393
713.700,0.983334
713.800,0.983280
713.900,0.983222
714.000,0.983173
714.100,0.983112
714.200,0.983055
714.300,0.982999
714.400,0.982946
714.500,0.982890
714.600,0.982829
714.700,0.982766
714.800,0.982713
714.900,0.982651
715.000,0.982588
715.100,0.982540
715.200,0.982483
715.300,0.982419
715.400,0.982359
715.500,0.982294
715.600,0.982230
715.700,0.982175
715.800,0.982109
715.900,0.982055
716.000,0.981994
716.100,0.981934
716.200,0.981867
716.300,0.981806
716.400,0.981739
716.500,0.981661
716.600,0.981604
716.700,0.981538
716.800,0.981469
716.900,0.981406
717.000,0.981337
717.100,0.981273
717.200,0.981210
717.300,0.981141
717.400,0.981075
717.500,0.981011
717.600,0.980940
717.700,0.980874
717.800,0.980794
717.900,0.980722
718.000,0.980663
718.100,0.980590
718.200,0.980520
718.300,0.980453
718.400,0.980368
718.500,0.980300
718.600,0.980232
718.700,0.980159
718.800,0.980084
718.900,0.980011
719.000,0.979935
719.100,0.979861
719.200,0.979790
719.300,0.979716
719.400,0.979634
719.500,0.979563
719.600,0.979486
719.700,0.979397
719.800,0.979326
719.900,0.979254
720.000,0.979164
720.100,0.979090
720.200,0.979011
720.300,0.978940
720.400,0.978853
720.500,0.978774
720.600,0.978693
720.700,0.978604
720.800,0.978530
720.900,0.978450
721.000,0.978361
721.100,0.978280
721.200,0.978197
721.300,0.978116
721.400,0.978032
721.500,0.977936
721.600,0.977859
721.700,0.977781
721.800,0.977690
721.900,0.977605
722.000,0.977520
722.100,0.977427
722.200,0.977349
722.300,0.977248
722.400,0.977168
722.500,0.977082
722.600,0.976979
722.700,0.976905
722.800,0.976805
722.900,0.976716
723.000,0.976620
723.100,0.976539
723.200,0.976435
723.300,0.976353
723.400,0.976246
723.500,0.976154
723.600,0.976064
723.700,0.975971
723.800,0.975866
723.900,0.975779
724.000,0.975672
724.100,0.975573
724.200,0.975478
724.300,0.975370
724.400,0.975275
724.500,0.975164
724.600,0.975078
724.700,0.974966
724.800,0.974869
724.900,0.974757
725.000,0.974654
725.100,0.974555
725.200,0.974442
725.300,0.974341
725.400,0.974228
725.500,0.974136
725.600,0.974018
725.700,0.973904
725.800,0.973804
725.900,0.973686
726.000,0.973592
726.100,0.973472
726.200,0.973354
726.300,0.973251
726.400,0.973131
726.500,0.973019
726.600,0.972915
726.700,0.972793
726.800,0.972695
726.900,0.972583
727.000,0.972456
727.100,0.972350
727.200,0.972227
727.300,0.972116
727.400,0.972003
727.500,0.971875
727.600,0.971765
727.700,0.971639
727.800,0.971510
727.900,0.971410
728.000,0.971281
728.100,0.971165
728.200,0.971036
728.300,0.970905
728.400,0.970800
728.500,0.970670
728.600,0.970537
728.700,0.970417
728.800,0.970284
728.900,0.970176
729.000,0.970043
729.100,0.969908
729.200,0.969787
729.300,0.969660
729.400,0.969526
729.500,0.969400
729.600,0.969262
729.700,0.969140
729.800,0.969010
729.900,0.968869
730.000,0.968745
730.100,0.968598
730.200,0.968458
730.300,0.968338
730.400,0.968197
730.500,0.968069
730.600,0.967921
730.700,0.967777
730.800,0.967659
730.900,0.967512
731.000,0.967360
731.100,0.967228
731.200,0.967077
731.300,0.966939
731.400,0.966806
731.500,0.966654
731.600,0.966500
731.700,0.966363
731.800,0.966221
731.900,0.966085
732.000,0.965928
732.100,0.965770
732.200,0.965645
732.300,0.965492
732.400,0.965338
732.500,0.965197
732.600,0.965032
732.700,0.964885
732.800,0.964739
732.900,0.964578
733.000,0.964415
733.100,0.964266
733.200,0.964112
733.300,0.963946
733.400,0.963799
733.500,0.963631
733.600,0.963460
733.700,0.963324
733.800,0.963153
733.900,0.962982
734.000,0.962826
734.100,0.962656
734.200,0.962496
734.300,0.962338
734.400,0.962165
734.500,0.961985
734.600,0.961829
734.700,0.961665
734.800,0.961482
734.900,0.961320
735.000,0.961141
735.100,0.960955
735.200,0.960809
735.300,0.960625
735.400,0.960439
735.500,0.960275
735.600,0.960102
735.700,0.959913
735.800,0.959746
735.900,0.959552
736.000,0.959363
736.100,0.959205
736.200,0.959011
736.300,0.958819
736.400,0.958646
736.500,0.958448
736.600,0.958265
736.700,0.958089
736.800,0.957888
736.900,0.957688
737.000,0.957509
737.100,0.957322
737.200,0.957123
737.300,0.956938
737.400,0.956733
737.500,0.956527
737.600,0.956334
737.700,0.956147
737.800,0.955937
737.900,0.955735
738.000,0.955544
738.100,0.955350
738.200,0.955132
738.300,0.954942
738.400,0.954725
738.500,0.954507
738.600,0.954311
738.700,0.954108
738.800,0.953886
738.900,0.953667
739.000,0.953461
739.100,0.953255
739.200,0.953032
739.300,0.952822
739.400,0.952596
739.500,0.952369
739.600,0.952175
739.700,0.951941
739.800,0.951710
739.900,0.951473
740.000,0.951258
740.100,0.951040
740.200,0.950804
740.300,0.950588
740.400,0.950345
740.500,0.950100
740.600,0.949879
740.700,0.949660
740.800,0.949410
740.900,0.949163
741.000,0.948939
741.100,0.948707
741.200,0.948456
741.300,0.948199
741.400,0.947969
741.500,0.947709
741.600,0.947474
741.700,0.947240
741.800,0.946976
741.900,0.946719
742.000,0.946456
742.100,0.946235
742.200,0.945973
742.300,0.945700
742.400,0.945451
742.500,0.945184
742.600,0.944936
742.700,0.944661
742.800,0.944410
742.900,0.944132
743.000,0.943853
743.100,0.943616
743.200,0.943339
743.300,0.943055
743.400,0.942788
743.500,0.942521
743.600,0.942258
743.700,0.941971
743.800,0.941672
743.900,0.941408
744.000,0.941111
744.100,0.940838
744.200,0.940564
744.300,0.940261
744.400,0.939961
744.500,0.939655
744.600,0.939401
744.700,0.939091
744.800,0.938790
744.900,0.938470
745.000,0.938187
745.100,0.937902
745.200,0.937584
745.300,0.937266
745.400,0.936970
745.500,0.936650
745.600,0.936357
745.700,0.936021
745.800,0.935729
745.900,0.935394
746.000,0.935057
746.100,0.934762
746.200,0.934449
746.300,0.934106
746.400,0.933773
746.500,0.933443
746.600,0.933168
746.700,0.932809
746.800,0.932468
746.900,0.932117
747.000,0.931790
747.100,0.931467
747.200,0.931136
747.300,0.930776
747.400,0.930439
747.500,0.930074
747.600,0.929750
747.700,0.929374
747.800,0.929060
747.900,0.928688
748.000,0.928311
748.100,0.927969
748.200,0.927628
748.300,0.927244
748.400,0.926853
748.500,0.926492
748.600,0.926168
748.700,0.925783
748.800,0.925388
748.900,0.924991
749.000,0.924621
749.100,0.924257
749.200,0.923879
749.300,0.923469
749.400,0.923065
749.500,0.922678
749.600,0.922308
749.700,0.921897
749.800,0.921496
749.900,0.921103
750.000,0.920683
750.100,0.920294
750.200,0.919861
750.300,0.919466
750.400,0.919035
750.500,0.918615
750.600,0.918220
750.700,0.917780
750.800,0.917372
750.900,0.916919
751.000,0.916470
751.100,0.916018
751.200,0.915656
751.300,0.915198
751.400,0.914738
751.500,0.914273
751.600,0.913798
751.700,0.913408
751.800,0.912958
751.900,0.912472
752.000,0.911992
752.100,0.911545
752.200,0.911105
752.300,0.910606
752.400,0.910113
752.500,0.909651
752.600,0.909179
752.700,0.908724
752.800,0.908217
752.900,0.907715
753.000,0.907204
753.100,0.906724
753.200,0.906277
753.300,0.905755
753.400,0.905226
753.500,0.904733
753.600,0.904209
753.700,0.903712
753.800,0.903203
753.900,0.902656
754.000,0.902147
754.100,0.901592
754.200,0.901087
754.300,0.900537
754.400,0.899960
754.500,0.899478
754.600,0.898904
754.700,0.898314
754.800,0.897801
754.900,0.897214
755.000,0.896688
755.100,0.896082
755.200,0.895522
755.300,0.894977
755.400,0.894382
755.500,0.893812
755.600,0.893194
755.700,0.892587
755.800,0.892049
755.900,0.891433
756.000,0.890813
756.100,0.890216
756.200,0.889586
756.300,0.889001
756.400,0.888363
756.500,0.887747
756.600,0.887128
756.700,0.886475
756.800,0.885868
756.900,0.885206
757.000,0.884539
757.100,0.883909
757.200,0.883248
757.300,0.882619
757.400,0.881945
757.500,0.881240
757.600,0.880544
757.700,0.879901
757.800,0.879206
757.900,0.878552
758.000,0.877848
758.100,0.877125
758.200,0.876430
758.300,0.875692
758.400,0.875028
758.500,0.874328
758.600,0.873563
758.700,0.872821
758.800,0.872108
758.900,0.871385
759.000,0.870627
759.100,0.869849
759.200,0.869110
759.300,0.868304
759.400,0.867638
759.500,0.866851
759.600,0.866027
759.700,0.865228
759.800,0.864439
759.900,0.863628
760.000,0.862929
760.100,0.862090
760.200,0.861260
760.300,0.860391
760.400,0.859527
760.500,0.858783
760.600,0.857979
760.700,0.857084
760.800,0.856236
760.900,0.855344
761.000,0.854535
761.100,0.853646
761.200,0.852821
761.300,0.851918
761.400,0.850973
761.500,0.850151
761.600,0.849227
761.700,0.848260
761.800,0.847412
761.900,0.846448
762.000,0.845494
762.100,0.844615
762.200,0.843628
762.300,0.842676
762.400,0.841655
762.500,0.840756
762.600,0.839862
762.700,0.838861
762.800,0.837827
762.900,0.836784
763.000,0.835753
763.100,0.834886
763.200,0.833857
763.300,0.832802
763.400,0.831738
763.500,0.830645
763.600,0.829683
763.700,0.828594
763.800,0.827573
763.900,0.826473
764.000,0.825357
764.100,0.824261
764.200,0.823202
764.300,0.822088
764.400,0.820936
764.500,0.819855
764.600,0.818691
764.700,0.817635
764.800,0.816476
764.900,0.815254
765.000,0.814076
765.100,0.812835
765.200,0.811847
765.300,0.810610
765.400,0.809394
765.500,0.808137
765.600,0.806851
765.700,0.805572
765.800,0.804494
765.900,0.803235
766.000,0.801959
766.100,0.800613
766.200,0.799315
766.300,0.798088
766.400,0.796735
766.500,0.795450
766.600,0.794047
766.700,0.792763
766.800,0.791486
766.900,0.790112
767.000,0.788663
767.100,0.787267
767.200,0.785904
767.300,0.784455
767.400,0.783142
767.500,0.781740
767.600,0.780286
767.700,0.778751
767.800,0.777318
767.900,0.775989
768.000,0.774456
768.100,0.772901
768.200,0.771372
768.300,0.769903
768.400,0.768447
768.500,0.766929
768.600,0.765350
768.700,0.763725
768.800,0.762045
768.900,0.760425
769.000,0.758970
769.100,0.757290
769.200,0.755755
769.300,0.754081
769.400,0.752315
769.500,0.750798
769.600,0.749083
769.700,0.747353
769.800,0.745624
769.900,0.743819
770.000,0.742238
770.100,0.740491
770.200,0.738688
770.300,0.736870
770.400,0.735036
770.500,0.733201
770.600,0.731540
770.700,0.729699
770.800,0.727765
770.900,0.725804
771.000,0.723956
771.100,0.722226
771.200,0.720281
771.300,0.718305
771.400,0.716313
771.500,0.714263
771.600,0.712277
771.700,0.710458
771.800,0.708454
771.900,0.706335
772.000,0.704324
772.100,0.702268
772.200,0.700330
772.300,0.698184
772.400,0.696064
772.500,0.693938
772.600,0.691693
772.700,0.689719
772.800,0.687542
772.900,0.685241
773.000,0.683100
773.100,0.680807
773.200,0.678553
773.300,0.676431
773.400,0.674083
773.500,0.671776
773.600,0.669388
773.700,0.666979
773.800,0.664877
773.900,0.662431
774.000,0.659978
774.100,0.657630
774.200,0.655122
774.300,0.652601
774.400,0.650333
774.500,0.647832
774.600,0.645242
774.700,0.642690
774.800,0.640057
774.900,0.637642
775.000,0.635093
775.100,0.632457
775.200,0.629739
775.300,0.627107
775.400,0.624461
775.500,0.621986
775.600,0.619198
775.700,0.616428
775.800,0.613639
775.900,0.610708
776.000,0.608210
776.100,0.605352
776.200,0.602414
776.300,0.599528
776.400,0.596602
776.500,0.594021
776.600,0.591069
776.700,0.588077
776.800,0.585079
776.900,0.581975
777.000,0.578995
777.100,0.576195
777.200,0.572958
777.300,0.569973
777.400,0.566752
777.500,0.563526
777.600,0.560750
777.700,0.557545
777.800,0.554229
777.900,0.550887
778.000,0.547768
778.100,0.544378
778.200,0.541434
778.300,0.538087
778.400,0.534758
778.500,0.531293
778.600,0.527852
778.700,0.524867
778.800,0.521309
778.900,0.517819
779.000,0.514306
779.100,0.510735
779.200,0.507174
779.300,0.503978
779.400,0.500296
779.500,0.496799
779.600,0.493144
779.700,0.489465
779.800,0.486149
779.900,0.482425
780.000,0.478653
780.100,0.474802
780.200,0.471149
780.300,0.467306
780.400,0.463827
780.500,0.460047
780.600,0.456116
780.700,0.452208
780.800,0.448169
780.900,0.444816
781.000,0.440760
781.100,0.436739
781.200,0.432721
781.300,0.428835
781.400,0.424748
781.500,0.421138
781.600,0.417124
781.700,0.412975
781.800,0.408922
781.900,0.404645
782.000,0.400523
782.100,0.396897
782.200,0.392679
782.300,0.388445
782.400,0.384246
782.500,0.379947
782.600,0.376155
782.700,0.371849
782.800,0.367674
782.900,0.363245
783.000,0.358983
783.100,0.354547
783.200,0.350764
783.300,0.346369
783.400,0.341957
783.500,0.337680
783.600,0.333245
783.700,0.329393
783.800,0.325029
783.900,0.320611
784.000,0.316006
784.100,0.311612
784.200,0.307164
784.300,0.303180
784.400,0.298762
784.500,0.294244
784.600,0.289764
784.700,0.285329
784.800,0.281226
784.900,0.276784
785.000,0.272383
785.100,0.267936
785.200,0.263296
785.300,0.258890
785.400,0.254972
785.500,0.250335
785.600,0.245892
785.700,0.241492
785.800,0.236962
785.900,0.232435
786.000,0.228539
786.100,0.224066
786.200,0.219561
786.300,0.215163
786.400,0.210841
786.500,0.206986
786.600,0.202525
786.700,0.198174
786.800,0.193832
786.900,0.189510
787.000,0.185207
787.100,0.181248
787.200,0.177009
787.300,0.172763
787.400,0.168449
787.500,0.164182
787.600,0.160503
787.700,0.156262
787.800,0.152253
787.900,0.148088
788.000,0.143933
788.100,0.139895
788.200,0.136368
788.300,0.132412
788.400,0.128499
788.500,0.124594
788.600,0.120657
788.700,0.116747
788.800,0.113411
788.900,0.109765
789.000,0.105990
789.100,0.102323
789.200,0.098622
789.300,0.095400
789.400,0.091981
789.500,0.088497
789.600,0.084992
789.700,0.081717
789.800,0.078387
789.900,0.075503
790.000,0.072230
790.100,0.069068
790.200,0.065957
790.300,0.062928
790.400,0.059936
790.500,0.057359
790.600,0.054506
790.700,0.051694
790.800,0.048949
790.900,0.046289
791.000,0.043929
791.100,0.041449
791.200,0.038913
791.300,0.036568
791.400,0.034224
791.500,0.031953
791.600,0.030031
791.700,0.027898
791.800,0.025898
791.900,0.023870
792.000,0.022017
792.100,0.020187
792.200,0.018656
792.300,0.016969
792.400,0.015365
792.500,0.013854
792.600,0.012412
792.700,0.011244
792.800,0.009964
792.900,0.008756
793.000,0.007655
793.100,0.006611
793.200,0.005659
793.300,0.004884
793.400,0.004098
793.500,0.003365
793.600,0.002750
793.700,0.002201
793.800,0.001734
793.900,0.001397
794.000,0.001101
794.100,0.000871
794.200,0.000742
794.300,0.000693
794.400,0.000720
794.500,0.000820
794.600,0.001015
794.700,0.001292
794.800,0.001635
794.900,0.002072
795.000,0.002515
795.100,0.003110
795.200,0.003786
795.300,0.004528
795.400,0.005366
795.500,0.006293
795.600,0.007139
795.700,0.008207
795.800,0.009363
795.900,0.010533
796.000,0.011831
796.100,0.013045
796.200,0.014457
796.300,0.015975
796.400,0.017532
796.500,0.019210
796.600,0.020910
796.700,0.022452
796.800,0.024336
796.900,0.026233
797.000,0.028240
797.100,0.030275
797.200,0.032434
797.300,0.034366
797.400,0.036536
797.500,0.038812
797.600,0.041270
797.700,0.043669
797.800,0.046135
797.900,0.048325
798.000,0.050965
798.100,0.053585
798.200,0.056270
798.300,0.059056
798.400,0.061565
798.500,0.064337
798.600,0.067273
798.700,0.070195
798.800,0.073254
798.900,0.076354
799.000,0.078955
799.100,0.082054
799.200,0.085264
799.300,0.088468
799.400,0.091617
799.500,0.094950
799.600,0.097854
799.700,0.101288
799.800,0.104579
799.900,0.108056
800.000,0.111519
800.100,0.114989
800.200,0.118038
800.300,0.121564
800.400,0.125149
800.500,0.128810
800.600,0.132335
800.700,0.136002
800.800,0.139276
800.900,0.142957
801.000,0.146573
801.100,0.150412
801.200,0.154157
801.300,0.157442
801.400,0.161133
801.500,0.165049
801.600,0.168863
801.700,0.172602
801.800,0.176568
801.900,0.179934
802.000,0.183802
802.100,0.187673
802.200,0.191606
802.300,0.195507
802.400,0.199408
802.500,0.202826
802.600,0.206795
802.700,0.210717
802.800,0.214653
802.900,0.218641
803.000,0.222493
803.100,0.226023
803.200,0.229880
803.300,0.233882
803.400,0.237920
803.500,0.241781
803.600,0.245735
803.700,0.249320
803.800,0.253178
803.900,0.257127
804.000,0.260945
804.100,0.264888
804.200,0.268324
804.300,0.272165
804.400,0.276123
804.500,0.279954
804.600,0.283871
804.700,0.287781
804.800,0.291057
804.900,0.294952
805.000,0.298748
805.100,0.302627
805.200,0.306580
805.300,0.310348
805.400,0.313589
805.500,0.317279
805.600,0.321191
805.700,0.324919
805.800,0.328726
805.900,0.332316
806.000,0.335696
806.100,0.339379
806.200,0.343138
806.300,0.346964
806.400,0.350494
806.500,0.354213
806.600,0.357292
806.700,0.361063
806.800,0.364541
806.900,0.368204
807.000,0.371766
807.100,0.375475
807.200,0.378432
807.300,0.382036
807.400,0.385539
807.500,0.389077
807.600,0.392483
807.700,0.396022
807.800,0.398901
807.900,0.402483
808.000,0.405892
808.100,0.409260
808.200,0.412635
808.300,0.416148
808.400,0.418945
808.500,0.422353
808.600,0.425630
808.700,0.428856
808.800,0.432211
808.900,0.434937
809.000,0.438329
809.100,0.441453
809.200,0.444739
809.300,0.447930
809.400,0.451148
809.500,0.453887
809.600,0.456928
809.700,0.460126
809.800,0.463229
809.900,0.466294
810.000,0.469362
810.100,0.472084
810.200,0.475089
810.300,0.478179
810.400,0.481084
810.500,0.484065
810.600,0.487165
810.700,0.489628
810.800,0.492630
810.900,0.495474
811.000,0.498339
811.100,0.501286
811.200,0.504054
811.300,0.506650
811.400,0.509475
811.500,0.512263
811.600,0.515053
811.700,0.517797
811.800,0.520533
811.900,0.522908
812.000,0.525477
812.100,0.528307
812.200,0.530910
812.300,0.533581
812.400,0.536216
812.500,0.538475
812.600,0.541097
812.700,0.543683
812.800,0.546271
812.900,0.548815
813.000,0.551366
813.100,0.553485
813.200,0.556009
813.300,0.558550
813.400,0.560961
813.500,0.563434
813.600,0.565926
813.700,0.568042
813.800,0.570391
813.900,0.572801
814.000,0.575229
814.100,0.577466
814.200,0.579829
814.300,0.581846
814.400,0.584228
814.500,0.586471
814.600,0.588829
814.700,0.591042
814.800,0.593288
814.900,0.595243
815.000,0.597469
815.100,0.599624
815.200,0.601819
815.300,0.603945
815.400,0.606112
815.500,0.607990
815.600,0.610121
815.700,0.612260
815.800,0.614370
815.900,0.616457
816.000,0.618553
816.100,0.620290
816.200,0.622344
816.300,0.624381
816.400,0.626356
816.500,0.628319
816.600,0.630383
816.700,0.632093
816.800,0.634017
816.900,0.635928
817.000,0.637938
817.100,0.639863
817.200,0.641735
817.300,0.643399
817.400,0.645187
817.500,0.647109
817.600,0.648932
817.700,0.650803
817.800,0.652601
817.900,0.654224
818.000,0.655999
818.100,0.657821
818.200,0.659610
818.300,0.661349
818.400,0.663076
818.500,0.664539
818.600,0.666338
818.700,0.668032
818.800,0.669714
818.900,0.671385
819.000,0.673080
819.100,0.674542
819.200,0.676235
819.300,0.677862
819.400,0.679513
819.500,0.681061
819.600,0.682656
819.700,0.684072
819.800,0.685681
819.900,0.687285
820.000,0.688837
820.100,0.690380
820.200,0.691945
820.300,0.693306
820.400,0.694819
820.500,0.696353
820.600,0.697791
820.700,0.699312
820.800,0.700784
820.900,0.702123
821.000,0.703577
821.100,0.705021
821.200,0.706456
821.300,0.707911
821.400,0.709327
821.500,0.710537
821.600,0.711935
821.700,0.713336
821.800,0.714715
821.900,0.716085
822.000,0.717447
822.100,0.718639
822.200,0.719983
822.300,0.721319
822.400,0.722645
822.500,0.723991
822.600,0.725344
822.700,0.726463
822.800,0.727705
822.900,0.729017
823.000,0.730293
823.100,0.731593
823.200,0.732879
823.300,0.733955
823.400,0.735199
823.500,0.736435
823.600,0.737689
823.700,0.738908
823.800,0.740120
823.900,0.741274
824.000,0.742328
824.100,0.743517
824.200,0.744699
824.300,0.745873
824.400,0.747064
824.500,0.748223
824.600,0.749213
824.700,0.750358
824.800,0.751520
824.900,0.752602
825.000,0.753725
825.100,0.754841
825.200,0.755780
825.300,0.756883
825.400,0.757979
825.500,0.759090
825.600,0.760172
825.700,0.761247
825.800,0.762165
825.900,0.763250
826.000,0.764259
826.100,0.765307
826.200,0.766350
826.300,0.767407
826.400,0.768264
826.500,0.769288
826.600,0.770271
826.700,0.771303
826.800,0.772307
826.900,0.773305
827.000,0.774158
827.100,0.775120
827.200,0.776101
827.300,0.777075
827.400,0.778044
827.500,0.779026
827.600,0.779815
827.700,0.780766
827.800,0.781668
827.900,0.782608
828.000,0.783443
828.100,0.784371
828.200,0.785164
828.300,0.786040
828.400,0.786952
828.500,0.787786
828.600,0.788688
828.700,0.789584
828.800,0.790433
828.900,0.791193
829.000,0.792002
829.100,0.792855
829.200,0.793684
829.300,0.794550
829.400,0.795410
829.500,0.796103
829.600,0.796925
829.700,0.797730
829.800,0.798571
829.900,0.799407
830.000,0.800197
830.100,0.800856
830.200,0.801638
830.300,0.802455
830.400,0.803268
830.500,0.804036
830.600,0.804811
830.700,0.805452
830.800,0.806246
830.900,0.807009
831.000,0.807755
831.100,0.808536
831.200,0.809246
831.300,0.809888
831.400,0.810656
831.500,0.811355
831.600,0.812114
831.700,0.812830
831.800,0.813555
831.900,0.814176
832.000,0.814880
832.100,0.815593
832.200,0.816290
832.300,0.817020
832.400,0.817665
832.500,0.818386
832.600,0.819002
832.700,0.819655
832.800,0.820365
832.900,0.821035
833.000,0.821695
833.100,0.822393
833.200,0.822953
833.300,0.823620
833.400,0.824271
833.500,0.824937
833.600,0.825617
833.700,0.826234
833.800,0.826810
833.900,0.827403
834.000,0.828069
834.100,0.828730
834.200,0.829331
834.300,0.829968
834.400,0.830491
834.500,0.831117
834.600,0.831761
834.700,0.832329
834.800,0.832966
834.900,0.833566
835.000,0.834175
835.100,0.834696
835.200,0.835264
835.300,0.835885
835.400,0.836469
835.500,0.837046
835.600,0.837623
835.700,0.838123
835.800,0.838728
835.900,0.839260
836.000,0.839859
836.100,0.840400
836.200,0.840993
836.300,0.841461
836.400,0.842015
836.500,0.842578
836.600,0.843111
836.700,0.843688
836.800,0.844242
836.900,0.844696
837.000,0.845245
837.100,0.845778
837.200,0.846306
837.300,0.846847
837.400,0.847372
837.500,0.847907
837.600,0.848333
837.700,0.848863
837.800,0.849409
837.900,0.849887
838.000,0.850427
838.100,0.850915
838.200,0.851359
838.300,0.851873
838.400,0.852372
838.500,0.852867
838.600,0.853360
838.700,0.853864
838.800,0.854264
838.900,0.854763
839.000,0.855277
839.100,0.855727
839.200,0.856236
839.300,0.856695
839.400,0.857113
839.500,0.857597
839.600,0.858067
839.700,0.858533
839.800,0.858998
839.900,0.859459
840.000,0.859949
840.100,0.860319
840.200,0.860774
840.300,0.861228
840.400,0.861678
840.500,0.862139
840.600,0.862586
840.700,0.862961
840.800,0.863404
840.900,0.863844
841.000,0.864294
841.100,0.864730
841.200,0.865163
841.300,0.865513
841.400,0.865958
841.500,0.866370
841.600,0.866807
841.700,0.867246
841.800,0.867652
841.900,0.868087
842.000,0.868424
842.100,0.868852
842.200,0.869281
842.300,0.869677
842.400,0.870086
842.500,0.870493
842.600,0.870848
842.700,0.871252
842.800,0.871654
842.900,0.872054
843.000,0.872460
843.100,0.872856
843.200,0.873201
843.300,0.873594
843.400,0.873985
843.500,0.874359
843.600,0.874760
843.700,0.875157
843.800,0.875515
843.900,0.875849
844.000,0.876217
844.100,0.876607
844.200,0.876995
844.300,0.877358
844.400,0.877742
844.500,0.878031
844.600,0.878425
844.700,0.878768
844.800,0.879146
844.900,0.879511
845.000,0.879873
845.100,0.880179
845.200,0.880525
845.300,0.880883
845.400,0.881264
845.500,0.881595
845.600,0.881959
845.700,0.882286
845.800,0.882606
845.900,0.882955
846.000,0.883289
846.100,0.883635
846.200,0.883978
846.300,0.884321
846.400,0.884619
846.500,0.884935
846.600,0.885284
846.700,0.885597
846.800,0.885945
846.900,0.886289
847.000,0.886598
847.100,0.886887
847.200,0.887194
847.300,0.887532
847.400,0.887871
847.500,0.888183
847.600,0.888507
847.700,0.888766
847.800,0.889087
847.900,0.889393
848.000,0.889724
848.100,0.890051
848.200,0.890344
848.300,0.890619
848.400,0.890909
848.500,0.891233
848.600,0.891553
848.700,0.891839
848.800,0.892156
848.900,0.892441
849.000,0.892707
849.100,0.893023
849.200,0.893319
849.300,0.893620
849.400,0.893898
849.500,0.894206
849.600,0.894457
849.700,0.894741
849.800,0.895047
849.900,0.895320
850.000,0.895621
850.100,0.895913
850.200,0.896190
850.300,0.896434
850.400,0.896701
850.500,0.896996
850.600,0.897293
850.700,0.897564
850.800,0.897847
850.900,0.898064
851.000,0.898354
851.100,0.898612
851.200,0.898891
851.300,0.899177
851.400,0.899433
851.500,0.899673
851.600,0.899927
851.700,0.900200
851.800,0.900480
851.900,0.900741
852.000,0.901019
852.100,0.901267
852.200,0.901493
852.300,0.901747
852.400,0.902013
852.500,0.902257
852.600,0.902528
852.700,0.902770
852.800,0.902999
852.900,0.903239
853.000,0.903498
853.100,0.903749
853.200,0.903987
853.300,0.904243
853.400,0.904486
853.500,0.904701
853.600,0.904934
853.700,0.905204
853.800,0.905435
853.900,0.905686
854.000,0.905923
854.100,0.906113
854.200,0.906361
854.300,0.906595
854.400,0.906841
854.500,0.907066
854.600,0.907317
854.700,0.907536
854.800,0.907740
854.900,0.907969
855.000,0.908190
855.100,0.908429
855.200,0.908656
855.300,0.908893
855.400,0.909073
855.500,0.909309
855.600,0.909532
855.700,0.909766
855.800,0.909980
855.900,0.910184
856.000,0.910422
856.100,0.910598
856.200,0.910827
856.300,0.911044
856.400,0.911277
856.500,0.911485
856.600,0.911693
856.700,0.911889
856.800,0.912095
856.900,0.912319
857.000,0.912524
857.100,0.912744
857.200,0.912947
857.300,0.913167
857.400,0.913340
857.500,0.913541
857.600,0.913759
857.700,0.913958
857.800,0.914181
857.900,0.914379
858.000,0.914564
858.100,0.914760
858.200,0.914979
858.300,0.915174
858.400,0.915368
858.500,0.915579
858.600,0.915770
858.700,0.915946
858.800,0.916137
858.900,0.916345
859.000,0.916541
859.100,0.916747
859.200,0.916936
859.300,0.917091
859.400,0.917287
859.500,0.917480
859.600,0.917683
859.700,0.917871
859.800,0.918065
859.900,0.918254
860.000,0.918423
860.100,0.918605
860.200,0.918787
860.300,0.918977
860.400,0.919163
860.500,0.919359
860.600,0.919507
860.700,0.919702
860.800,0.919873
860.900,0.920072
861.000,0.920248
861.100,0.920424
861.200,0.920616
861.300,0.920764
861.400,0.920952
861.500,0.921126
861.600,0.921315
861.700,0.921487
861.800,0.921674
861.900,0.921844
862.000,0.921984
862.100,0.922170
862.200,0.922339
862.300,0.922524
862.400,0.922684
862.500,0.922873
862.600,0.923011
862.700,0.923193
862.800,0.923358
862.900,0.923516
863.000,0.923700
863.100,0.923869
863.200,0.924048
863.300,0.924182
863.400,0.924353
863.500,0.924514
863.600,0.924691
863.700,0.924856
863.800,0.925010
863.900,0.925156
864.000,0.925315
864.100,0.925489
864.200,0.925640
864.300,0.925812
864.400,0.925969
864.500,0.926145
864.600,0.926270
864.700,0.926425
864.800,0.926595
864.900,0.926749
865.000,0.926910
865.100,0.927063
865.200,0.927231
865.300,0.927361
865.400,0.927506
865.500,0.927672
865.600,0.927822
865.700,0.927980
865.800,0.928129
865.900,0.928267
866.000,0.928409
866.100,0.928576
866.200,0.928724
866.300,0.928867
866.400,0.929028
866.500,0.929174
866.600,0.929302
866.700,0.929447
866.800,0.929606
866.900,0.929744
867.000,0.929901
867.100,0.930044
867.200,0.930156
867.300,0.930312
867.400,0.930448
867.500,0.930603
867.600,0.930748
867.700,0.930897
867.800,0.931036
867.900,0.931168
868.000,0.931301
868.100,0.931439
868.200,0.931585
868.300,0.931723
868.400,0.931874
868.500,0.932005
868.600,0.932131
868.700,0.932266
868.800,0.932410
868.900,0.932544
869.000,0.932673
869.100,0.932821
869.200,0.932931
869.300,0.933072
869.400,0.933209
869.500,0.933349
869.600,0.933484
869.700,0.933628
869.800,0.933754
869.900,0.933861
870.000,0.933999
870.100,0.934129
870.200,0.934272
870.300,0.934395
870.400,0.934537
870.500,0.934660
870.600,0.934778
870.700,0.934900
870.800,0.935027
870.900,0.935161
871.000,0.935287
871.100,0.935421
871.200,0.935526
871.300,0.935664
871.400,0.935783
871.500,0.935921
871.600,0.936039
871.700,0.936163
871.800,0.936293
871.900,0.936394
872.000,0.936524
872.100,0.936646
872.200,0.936780
872.300,0.936896
872.400,0.937029
872.500,0.937145
872.600,0.937243
872.700,0.937370
872.800,0.937490
872.900,0.937618
873.000,0.937737
873.100,0.937868
873.200,0.937960
873.300,0.938090
873.400,0.938202
873.500,0.938318
873.600,0.938442
873.700,0.938558
873.800,0.938681
873.900,0.938776
874.000,0.938898
874.100,0.939013
874.200,0.939119
874.300,0.939245
874.400,0.939353
874.500,0.939476
874.600,0.939569
874.700,0.939689
874.800,0.939801
874.900,0.939920
875.000,0.940032
875.100,0.940138
875.200,0.940261
875.300,0.940347
875.400,0.940465
875.500,0.940575
875.600,0.940692
875.700,0.940801
875.800,0.940917
875.900,0.941006
876.000,0.941106
876.100,0.941221
876.200,0.941331
876.300,0.941446
876.400,0.941553
876.500,0.941667
876.600,0.941754
876.700,0.941867
876.800,0.941968
876.900,0.942074
877.000,0.942186
877.100,0.942291
877.200,0.942403
877.300,0.942485
877.400,0.942596
877.500,0.942695
877.600,0.942810
877.700,0.942908
877.800,0.943013
877.900,0.943122
878.000,0.943202
878.100,0.943315
878.200,0.943412
878.300,0.943525
878.400,0.943622
878.500,0.943726
878.600,0.943808
878.700,0.943915
878.800,0.944011
878.900,0.944121
879.000,0.944228
879.100,0.944322
879.200,0.944432
879.300,0.944516
879.400,0.944614
879.500,0.944719
879.600,0.944823
879.700,0.944921
879.800,0.945025
879.900,0.945128
880.000,0.945218
880.100,0.945307
880.200,0.945414
880.300,0.945516
880.400,0.945607
880.500,0.945713
880.600,0.945815
880.700,0.945886
880.800,0.945988
880.900,0.946089
881.000,0.946183
881.100,0.946283
881.200,0.946383
881.300,0.946459
881.400,0.946555
881.500,0.946654
881.600,0.946742
881.700,0.946845
881.800,0.946943
881.900,0.947030
882.000,0.947111
882.100,0.947210
882.200,0.947297
882.300,0.947393
882.400,0.947494
882.500,0.947580
882.600,0.947673
882.700,0.947753
882.800,0.947852
882.900,0.947937
883.000,0.948032
883.100,0.948131
883.200,0.948213
883.300,0.948307
883.400,0.948389
883.500,0.948473
883.600,0.948566
883.700,0.948660
883.800,0.948743
883.900,0.948836
884.000,0.948929
884.100,0.948999
884.200,0.949088
884.300,0.949180
884.400,0.949266
884.500,0.949357
884.600,0.949448
884.700,0.949526
884.800,0.949604
884.900,0.949694
885.000,0.949774
885.100,0.949861
885.200,0.949955
885.300,0.950035
885.400,0.950109
885.500,0.950198
885.600,0.950284
885.700,0.950366
885.800,0.950454
885.900,0.950543
886.000,0.950618
886.100,0.950694
886.200,0.950782
886.300,0.950859
886.400,0.950943
886.500,0.951034
886.600,0.951111
886.700,0.951197
886.800,0.951266
886.900,0.951345
887.000,0.951431
887.100,0.951517
887.200,0.951589
887.300,0.951678
887.400,0.951763
887.500,0.951823
887.600,0.951905
887.700,0.951989
887.800,0.952067
887.900,0.952151
888.000,0.952232
888.100,0.952306
888.200,0.952375
888.300,0.952461
888.400,0.952541
888.500,0.952614
888.600,0.952696
888.700,0.952778
888.800,0.952848
888.900,0.952918
889.000,0.952999
889.100,0.953072
889.200,0.953150
889.300,0.953231
889.400,0.953302
889.500,0.953386
889.600,0.953450
889.700,0.953521
889.800,0.953601
889.900,0.953678
890.000,0.953748
890.100,0.953831
890.200,0.953896
890.300,0.953963
890.400,0.954042
890.500,0.954120
890.600,0.954187
890.700,0.954269
890.800,0.954346
890.900,0.954399
891.000,0.954477
891.100,0.954554
891.200,0.954629
891.300,0.954697
891.400,0.954774
891.500,0.954850
891.600,0.954905
891.700,0.954982
891.800,0.955058
891.900,0.955122
892.000,0.955198
892.100,0.955273
892.200,0.955337
892.300,0.955400
892.400,0.955474
892.500,0.955538
892.600,0.955613
892.700,0.955687
892.800,0.955753
892.900,0.955827
893.000,0.955887
893.100,0.955950
893.200,0.956023
893.300,0.956097
893.400,0.956159
893.500,0.956232
893.600,0.956305
893.700,0.956362
893.800,0.956426
893.900,0.956499
894.000,0.956568
894.100,0.956635
894.200,0.956704
894.300,0.956776
894.400,0.956827
894.500,0.956896
894.600,0.956967
894.700,0.957029
894.800,0.957098
894.900,0.957168
895.000,0.957230
895.100,0.957289
895.200,0.957359
895.300,0.957421
895.400,0.957488
895.500,0.957558
895.600,0.957619
895.700,0.957686
895.800,0.957743
895.900,0.957804
896.000,0.957871
896.100,0.957939
896.200,0.957997
896.300,0.958066
896.400,0.958134
896.500,0.958188
896.600,0.958248
896.700,0.958313
896.800,0.958381
896.900,0.958440
897.000,0.958505
897.100,0.958571
897.200,0.958616
897.300,0.958683
897.400,0.958750
897.500,0.958806
897.600,0.958872
897.700,0.958936
897.800,0.958994
897.900,0.959049
898.000,0.959112
898.100,0.959170
898.200,0.959233
898.300,0.959296
898.400,0.959353
898.500,0.959416
898.600,0.959469
898.700,0.959524
898.800,0.959589
898.900,0.959651
899.000,0.959707
899.100,0.959771
899.200,0.959833
899.300,0.959886
899.400,0.959940
899.500,0.960003
899.600,0.960067
899.700,0.960120
899.800,0.960183
899.900,0.960244
900.000,0.960288
900.100,0.960349
900.200,0.960412
900.300,0.960466
900.400,0.960527
900.500,0.960589
900.600,0.960641
900.700,0.960692
900.800,0.960752
900.900,0.960806
901.000,0.960865
901.100,0.960927
901.200,0.960979
901.300,0.961036
901.400,0.961086
901.500,0.961137
901.600,0.961198
901.700,0.961256
901.800,0.961309
901.900,0.961368
902.000,0.961428
902.100,0.961475
902.200,0.961528
902.300,0.961587
902.400,0.961645
902.500,0.961697
902.600,0.961752
902.700,0.961811
902.800,0.961851
902.900,0.961910
903.000,0.961966
903.100,0.962018
903.200,0.962074
903.300,0.962133
903.400,0.962182
903.500,0.962229
903.600,0.962283
903.700,0.962334
903.800,0.962389
903.900,0.962446
904.000,0.962495
904.100,0.962552
904.200,0.962598
904.300,0.962654
904.400,0.962700
904.500,0.962757
904.600,0.962813
904.700,0.962861
904.800,0.962917
904.900,0.962962
905.000,0.963011
905.100,0.963063
905.200,0.963118
905.300,0.963165
905.400,0.963221
905.500,0.963275
905.600,0.963314
905.700,0.963367
905.800,0.963418
905.900,0.963466
906.000,0.963520
906.100,0.963574
906.200,0.963620
906.300,0.963665
906.400,0.963718
906.500,0.963772
906.600,0.963815
906.700,0.963870
906.800,0.963922
906.900,0.963970
907.000,0.964012
907.100,0.964066
907.200,0.964111
907.300,0.964164
907.400,0.964213
907.500,0.964260
907.600,0.964311
907.700,0.964355
907.800,0.964400
907.900,0.964452
908.000,0.964503
908.100,0.964545
908.200,0.964598
908.300,0.964648
908.400,0.964692
908.500,0.964736
908.600,0.964786
908.700,0.964835
908.800,0.964881
908.900,0.964931
909.000,0.964983
909.100,0.965015
909.200,0.965064
909.300,0.965116
909.400,0.965159
909.500,0.965210
909.600,0.965257
909.700,0.965301
909.800,0.965350
909.900,0.965391
910.000,0.965433
910.100,0.965481
910.200,0.965532
910.300,0.965574
910.400,0.965622
910.500,0.965670
910.600,0.965712
910.700,0.965753
910.800,0.965800
910.900,0.965849
911.000,0.965891
911.100,0.965940
911.200,0.965986
911.300,0.966020
911.400,0.966068
911.500,0.966115
911.600,0.966156
911.700,0.966203
911.800,0.966252
911.900,0.966293
912.000,0.966331
912.100,0.966378
912.200,0.966418
912.300,0.966466
912.400,0.966513
912.500,0.966561
912.600,0.966600
912.700,0.966637
912.800,0.966685
912.900,0.966725
913.000,0.966771
913.100,0.966817
913.200,0.966856
913.300,0.966902
913.400,0.966939
913.500,0.966979
913.600,0.967024
913.700,0.967069
913.800,0.967110
913.900,0.967154
914.000,0.967198
914.100,0.967231
914.200,0.967274
914.300,0.967321
914.400,0.967359
914.500,0.967404
914.600,0.967448
914.700,0.967493
914.800,0.967525
914.900,0.967569
915.000,0.967611
915.100,0.967651
915.200,0.967695
915.300,0.967737
915.400,0.967777
915.500,0.967821
915.600,0.967858
915.700,0.967894
915.800,0.967937
915.900,0.967983
916.000,0.968018
916.100,0.968062
916.200,0.968106
916.300,0.968134
916.400,0.968179
916.500,0.968222
916.600,0.968264
916.700,0.968301
916.800,0.968344
916.900,0.968387
917.000,0.968416
917.100,0.968458
917.200,0.968500
917.300,0.968537
917.400,0.968579
917.500,0.968621
917.600,0.968657
917.700,0.968691
917.800,0.968732
917.900,0.968769
918.000,0.968811
918.100,0.968851
918.200,0.968888
918.300,0.968930
918.400,0.968962
918.500,0.968999
918.600,0.969039
918.700,0.969080
918.800,0.969122
918.900,0.969156
919.000,0.969197
919.100,0.969240
919.200,0.969266
919.300,0.969306
919.400,0.969347
919.500,0.969382
919.600,0.969423
919.700,0.969462
919.800,0.969497
919.900,0.969529
920.000,0.969569
920.100,0.969605
920.200,0.969643
920.300,0.969684
920.400,0.969718
920.500,0.969758
920.600,0.969790
920.700,0.969829
920.800,0.969864
920.900,0.969902
921.000,0.969942
921.100,0.969976
921.200,0.970014
921.300,0.970046
921.400,0.970082
921.500,0.970119
921.600,0.970158
921.700,0.970191
921.800,0.970230
921.900,0.970269
922.000,0.970295
922.100,0.970334
922.200,0.970371
922.300,0.970404
922.400,0.970444
922.500,0.970481
922.600,0.970514
922.700,0.970552
922.800,0.970583
922.900,0.970619
923.000,0.970654
923.100,0.970692
923.200,0.970728
923.300,0.970761
923.400,0.970798
923.500,0.970829
923.600,0.970860
923.700,0.970899
923.800,0.970935
923.900,0.970967
924.000,0.971005
924.100,0.971041
924.200,0.971067
924.300,0.971102
924.400,0.971140
924.500,0.971171
924.600,0.971208
924.700,0.971243
924.800,0.971280
924.900,0.971305
925.000,0.971341
925.100,0.971378
925.200,0.971408
925.300,0.971446
925.400,0.971481
925.500,0.971512
925.600,0.971547
925.700,0.971578
925.800,0.971608
925.900,0.971644
926.000,0.971678
926.100,0.971711
926.200,0.971747
926.300,0.971781
926.400,0.971805
926.500,0.971841
926.600,0.971876
926.700,0.971906
926.800,0.971941
926.900,0.971976
927.000,0.972012
927.100,0.972034
927.200,0.972069
927.300,0.972104
927.400,0.972135
927.500,0.972168
927.600,0.972203
927.700,0.972232
927.800,0.972268
927.900,0.972290
928.000,0.972325
928.100,0.972353
928.200,0.972383
928.300,0.972411
928.400,0.972446
928.500,0.972474
928.600,0.972498
928.700,0.972526
928.800,0.972560
928.900,0.972588
929.000,0.972617
929.100,0.972646
929.200,0.972680
929.300,0.972701
929.400,0.972730
929.500,0.972758
929.600,0.972793
929.700,0.972820
929.800,0.972849
929.900,0.972881
930.000,0.972911
930.100,0.972932
930.200,0.972961
930.300,0.972992
930.400,0.973021
930.500,0.973048
930.600,0.973078
930.700,0.973109
930.800,0.973131
930.900,0.973158
931.000,0.973186
931.100,0.973219
931.200,0.973246
931.300,0.973274
931.400,0.973305
931.500,0.973327
931.600,0.973355
931.700,0.973383
931.800,0.973414
931.900,0.973442
932.000,0.973468
932.100,0.973496
932.200,0.973522
932.300,0.973548
932.400,0.973576
932.500,0.973602
932.600,0.973634
932.700,0.973660
932.800,0.973689
932.900,0.973715
933.000,0.973741
933.100,0.973767
933.200,0.973792
933.300,0.973825
933.400,0.973851
933.500,0.973878
933.600,0.973904
933.700,0.973930
933.800,0.973955
933.900,0.973981
934.000,0.974009
934.100,0.974039
934.200,0.974066
934.300,0.974091
934.400,0.974118
934.500,0.974142
934.600,0.974168
934.700,0.974195
934.800,0.974220
934.900,0.974251
935.000,0.974276
935.100,0.974302
935.200,0.974327
935.300,0.974353
935.400,0.974378
935.500,0.974404
935.600,0.974433
935.700,0.974459
935.800,0.974484
935.900,0.974503
936.000,0.974535
936.100,0.974559
936.200,0.974584
936.300,0.974610
936.400,0.974639
936.500,0.974664
936.600,0.974689
936.700,0.974714
936.800,0.974739
936.900,0.974764
937.000,0.974788
937.100,0.974818
937.200,0.974843
937.300,0.974867
937.400,0.974886
937.500,0.974916
937.600,0.974940
937.700,0.974966
937.800,0.974989
937.900,0.975018
938.000,0.975043
938.100,0.975061
938.200,0.975087
938.300,0.975116
938.400,0.975140
938.500,0.975165
938.600,0.975193
938.700,0.975217
938.800,0.975241
938.900,0.975259
939.000,0.975289
939.100,0.975312
939.200,0.975337
939.300,0.975362
939.400,0.975389
939.500,0.975413
939.600,0.975432
939.700,0.975455
939.800,0.975483
939.900,0.975507
940.000,0.975531
940.100,0.975554
940.200,0.975582
940.300,0.975606
940.400,0.975624
940.500,0.975651
940.600,0.975676
940.700,0.975699
940.800,0.975722
940.900,0.975750
941.000,0.975773
941.100,0.975790
941.200,0.975813
941.300,0.975842
941.400,0.975865
941.500,0.975888
941.600,0.975912
941.700,0.975938
941.800,0.975956
941.900,0.975980
942.000,0.976006
942.100,0.976029
942.200,0.976052
942.300,0.976075
942.400,0.976101
942.500,0.976125
942.600,0.976143
942.700,0.976165
942.800,0.976191
942.900,0.976215
943.000,0.976237
943.100,0.976259
943.200,0.976287
943.300,0.976304
943.400,0.976326
943.500,0.976348
943.600,0.976375
943.700,0.976397
943.800,0.976419
943.900,0.976446
944.000,0.976469
944.100,0.976485
944.200,0.976507
944.300,0.976534
944.400,0.976556
944.500,0.976578
944.600,0.976601
944.700,0.976626
944.800,0.976643
944.900,0.976665
945.000,0.976687
945.100,0.976712
945.200,0.976735
945.300,0.976757
945.400,0.976778
945.500,0.976803
945.600,0.976821
945.700,0.976842
945.800,0.976867
945.900,0.976890
946.000,0.976911
946.100,0.976932
946.200,0.976957
946.300,0.976975
946.400,0.976997
946.500,0.977018
946.600,0.977042
946.700,0.977065
946.800,0.977086
946.900,0.977107
947.000,0.977131
947.100,0.977147
947.200,0.977169
947.300,0.977194
947.400,0.977215
947.500,0.977236
947.600,0.977257
947.700,0.977282
947.800,0.977298
947.900,0.977318
948.000,0.977340
948.100,0.977364
948.200,0.977385
948.300,0.977406
948.400,0.977427
948.500,0.977452
948.600,0.977467
948.700,0.977487
948.800,0.977509
948.900,0.977533
949.000,0.977553
949.100,0.977574
949.200,0.977594
949.300,0.977614
949.400,0.977634
949.500,0.977654
949.600,0.977675
949.700,0.977695
949.800,0.977715
949.900,0.977740
950.000,0.977760
950.100,0.977775
950.200,0.977795
950.300,0.977815
950.400,0.977836
950.500,0.977859
950.600,0.977879
950.700,0.977899
950.800,0.977914
950.900,0.977934
951.000,0.977955
951.100,0.977978
951.200,0.977998
951.300,0.978017
951.400,0.978037
951.500,0.978057
951.600,0.978076
951.700,0.978096
951.800,0.978116
951.900,0.978135
952.000,0.978154
952.100,0.978175
952.200,0.978198
952.300,0.978213
952.400,0.978232
952.500,0.978252
952.600,0.978271
952.700,0.978291
952.800,0.978314
952.900,0.978333
953.000,0.978352
953.100,0.978367
953.200,0.978386
953.300,0.978406
953.400,0.978429
953.500,0.978448
953.600,0.978466
953.700,0.978485
953.800,0.978500
953.900,0.978523
954.000,0.978542
954.100,0.978561
954.200,0.978580
954.300,0.978599
954.400,0.978618
954.500,0.978640
954.600,0.978654
954.700,0.978673
954.800,0.978693
954.900,0.978712
955.000,0.978730
955.100,0.978752
955.200,0.978771
955.300,0.978785
955.400,0.978804
955.500,0.978823
955.600,0.978842
955.700,0.978864
955.800,0.978882
955.900,0.978901
956.000,0.978918
956.100,0.978933
956.200,0.978955
956.300,0.978974
956.400,0.978992
956.500,0.979010
956.600,0.979029
956.700,0.979048
956.800,0.979065
956.900,0.979083
957.000,0.979102
957.100,0.979120
957.200,0.979138
957.300,0.979157
957.400,0.979178
957.500,0.979196
957.600,0.979209
957.700,0.979227
957.800,0.979245
957.900,0.979263
958.000,0.979284
958.100,0.979303
958.200,0.979321
958.300,0.979339
958.400,0.979353
958.500,0.979374
958.600,0.979392
958.700,0.979409
958.800,0.979427
958.900,0.979444
959.000,0.979462
959.100,0.979479
959.200,0.979496
959.300,0.979514
959.400,0.979531
959.500,0.979549
959.600,0.979567
959.700,0.979587
959.800,0.979605
959.900,0.979619
960.000,0.979636
960.100,0.979653
960.200,0.979671
960.300,0.979691
960.400,0.979709
960.500,0.979726
960.600,0.979739
960.700,0.979757
960.800,0.979775
960.900,0.979796
961.000,0.979813
961.100,0.979829
961.200,0.979846
961.300,0.979863
961.400,0.979880
961.500,0.979897
961.600,0.979914
961.700,0.979932
961.800,0.979949
961.900,0.979966
962.000,0.979986
962.100,0.980003
962.200,0.980015
962.300,0.980032
962.400,0.980049
962.500,0.980066
962.600,0.980086
962.700,0.980103
962.800,0.980120
962.900,0.980132
963.000,0.980149
963.100,0.980165
963.200,0.980185
963.300,0.980202
963.400,0.980219
963.500,0.980236
963.600,0.980253
963.700,0.980268
963.800,0.980285
963.900,0.980301
964.000,0.980318
964.100,0.980334
964.200,0.980351
964.300,0.980371
964.400,0.980383
964.500,0.980399
964.600,0.980415
964.700,0.980432
964.800,0.980448
964.900,0.980468
965.000,0.980484
965.100,0.980500
965.200,0.980512
965.300,0.980528
965.400,0.980544
965.500,0.980564
965.600,0.980580
965.700,0.980596
965.800,0.980612
965.900,0.980628
966.000,0.980643
966.100,0.980659
966.200,0.980675
966.300,0.980692
966.400,0.980708
966.500,0.980724
966.600,0.980742
966.700,0.980754
966.800,0.980770
966.900,0.980786
967.000,0.980802
967.100,0.980818
967.200,0.980836
967.300,0.980852
967.400,0.980868
967.500,0.980880
967.600,0.980896
967.700,0.980912
967.800,0.980930
967.900,0.980945
968.000,0.980961
968.100,0.980977
968.200,0.980992
968.300,0.981007
968.400,0.981023
968.500,0.981039
968.600,0.981054
968.700,0.981069
968.800,0.981085
968.900,0.981103
969.000,0.981115
969.100,0.981131
969.200,0.981145
969.300,0.981161
969.400,0.981176
969.500,0.981195
969.600,0.981210
969.700,0.981225
969.800,0.981237
969.900,0.981252
970.000,0.981267
970.100,0.981286
970.200,0.981301
970.300,0.981316
970.400,0.981331
970.500,0.981346
970.600,0.981357
970.700,0.981373
970.800,0.981387
970.900,0.981402
971.000,0.981417
971.100,0.981432
971.200,0.981450
971.300,0.981462
971.400,0.981476
971.500,0.981491
971.600,0.981506
971.700,0.981521
971.800,0.981536
971.900,0.981551
972.000,0.981565
972.100,0.981576
972.200,0.981591
972.300,0.981605
972.400,0.981620
972.500,0.981634
972.600,0.981649
972.700,0.981664
972.800,0.981682
972.900,0.981692
973.000,0.981707
973.100,0.981721
973.200,0.981736
973.300,0.981751
973.400,0.981765
973.500,0.981779
973.600,0.981794
973.700,0.981805
973.800,0.981819
973.900,0.981833
974.000,0.981847
974.100,0.981862
974.200,0.981876
974.300,0.981890
974.400,0.981904
974.500,0.981919
974.600,0.981933
974.700,0.981947
974.800,0.981960
974.900,0.981975
975.000,0.981989
975.100,0.982004
975.200,0.982014
975.300,0.982028
975.400,0.982042
975.500,0.982056
975.600,0.982070
975.700,0.982084
975.800,0.982098
975.900,0.982112
976.000,0.982123
976.100,0.982140
976.200,0.982153
976.300,0.982168
976.400,0.982182
976.500,0.982196
976.600,0.982210
976.700,0.982219
976.800,0.982233
976.900,0.982248
977.000,0.982262
977.100,0.982275
977.200,0.982289
977.300,0.982303
977.400,0.982317
977.500,0.982327
977.600,0.982341
977.700,0.982358
977.800,0.982372
977.900,0.982385
978.000,0.982399
978.100,0.982413
978.200,0.982426
978.300,0.982435
978.400,0.982449
978.500,0.982463
978.600,0.982477
978.700,0.982490
978.800,0.982504
978.900,0.982518
979.000,0.982531
979.100,0.982541
979.200,0.982555
979.300,0.982570
979.400,0.982584
979.500,0.982597
979.600,0.982611
979.700,0.982624
979.800,0.982634
979.900,0.982647
980.000,0.982660
980.100,0.982674
980.200,0.982687
980.300,0.982700
980.400,0.982714
980.500,0.982727
980.600,0.982737
980.700,0.982750
980.800,0.982763
980.900,0.982776
981.000,0.982792
981.100,0.982805
981.200,0.982819
981.300,0.982832
981.400,0.982842
981.500,0.982854
981.600,0.982867
981.700,0.982881
981.800,0.982893
981.900,0.982907
982.000,0.982920
982.100,0.982933
982.200,0.982942
982.300,0.982955
982.400,0.982968
982.500,0.982981
982.600,0.982997
982.700,0.983009
982.800,0.983022
982.900,0.983035
983.000,0.983044
983.100,0.983058
983.200,0.983070
983.300,0.983082
983.400,0.983095
983.500,0.983109
983.600,0.983121
983.700,0.983130
983.800,0.983143
983.900,0.983156
984.000,0.983168
984.100,0.983181
984.200,0.983197
984.300,0.983209
984.400,0.983222
984.500,0.983232
984.600,0.983244
984.700,0.983256
984.800,0.983269
984.900,0.983282
985.000,0.983294
985.100,0.983307
985.200,0.983320
985.300,0.983328
985.400,0.983341
985.500,0.983354
985.600,0.983366
985.700,0.983378
985.800,0.983393
985.900,0.983406
986.000,0.983418
986.100,0.983427
986.200,0.983439
986.300,0.983451
986.400,0.983464
986.500,0.983476
986.600,0.983488
986.700,0.983500
986.800,0.983513
986.900,0.983522
987.000,0.983534
987.100,0.983547
987.200,0.983559
987.300,0.983570
987.400,0.983583
987.500,0.983598
987.600,0.983607
987.700,0.983619
987.800,0.983631
987.900,0.983643
988.000,0.983655
988.100,0.983667
988.200,0.983680
988.300,0.983691
988.400,0.983700
988.500,0.983713
988.600,0.983724
988.700,0.983736
988.800,0.983748
988.900,0.983760
989.000,0.983772
989.100,0.983786
989.200,0.983795
989.300,0.983807
989.400,0.983819
989.500,0.983830
989.600,0.983842
989.700,0.983854
989.800,0.983865
989.900,0.983877
990.000,0.983886
990.100,0.983898
990.200,0.983910
990.300,0.983922
990.400,0.983933
990.500,0.983945
990.600,0.983957
990.700,0.983971
990.800,0.983980
990.900,0.983991
991.000,0.984003
991.100,0.984015
991.200,0.984026
991.300,0.984038
991.400,0.984050
991.500,0.984061
991.600,0.984070
991.700,0.984082
991.800,0.984090
991.900,0.984102
992.000,0.984114
992.100,0.984125
992.200,0.984136
992.300,0.984143
992.400,0.984154
992.500,0.984166
992.600,0.984177
992.700,0.984188
992.800,0.984198
992.900,0.984209
993.000,0.984220
993.100,0.984229
993.200,0.984240
993.300,0.984249
993.400,0.984260
993.500,0.984271
993.600,0.984283
993.700,0.984295
993.800,0.984303
993.900,0.984311
994.000,0.984323
994.100,0.984334
994.200,0.984345
994.300,0.984354
994.400,0.984365
994.500,0.984376
994.600,0.984388
994.700,0.984396
994.800,0.984405
994.900,0.984415
995.000,0.984427
995.100,0.984439
995.200,0.984449
995.300,0.984458
995.400,0.984469
995.500,0.984477
995.600,0.984489
995.700,0.984499
995.800,0.984508
995.900,0.984520
996.000,0.984531
996.100,0.984541
996.200,0.984553
996.300,0.984561
996.400,0.984569
996.500,0.984580
996.600,0.984591
996.700,0.984602
996.800,0.984612
996.900,0.984622
997.000,0.984632
997.100,0.984640
997.200,0.984651
997.300,0.984661
997.400,0.984670
997.500,0.984682
997.600,0.984692
997.700,0.984703
997.800,0.984713
997.900,0.984720
998.000,0.984730
998.100,0.984741
998.200,0.984752
998.300,0.984762
998.400,0.984771
998.500,0.984782
998.600,0.984792
998.700,0.984800
998.800,0.984811
998.900,0.984819
999.000,0.984830
999.100,0.984840
999.200,0.984851
999.300,0.984862
999.400,0.984867
999.500,0.984878
999.600,0.984888
999.700,0.984898
999.800,0.984909
999.900,0.984918
1000.000,0.984928