Wavelength,Reflectance
400.000,0.815386
400.100,0.815357
400.200,0.815329
400.300,0.815300
400.400,0.815273
400.500,0.815243
400.600,0.815216
400.700,0.815187
400.800,0.815158
400.900,0.815130
401.000,0.815101
401.100,0.815077
401.200,0.815050
401.300,0.815026
401.400,0.814999
401.500,0.814973
401.600,0.814949
401.700,0.814922
401.800,0.814898
401.900,0.814871
402.000,0.814848
402.100,0.814822
402.200,0.814798
402.300,0.814771
402.400,0.814748
402.500,0.814722
402.600,0.814699
402.700,0.814675
402.800,0.814653
402.900,0.814630
403.000,0.814609
403.100,0.814585
403.200,0.814564
403.300,0.814541
403.400,0.814520
403.500,0.814496
403.600,0.814475
403.700,0.814452
403.800,0.814431
403.900,0.814407
404.000,0.814387
404.100,0.814363
404.200,0.814344
404.300,0.814322
404.400,0.814304
404.500,0.814283
404.600,0.814265
404.700,0.814244
404.800,0.814226
404.900,0.814205
405.000,0.814187
405.100,0.814166
405.200,0.814148
405.300,0.814130
405.400,0.814110
405.500,0.814092
405.600,0.814071
405.700,0.814053
405.800,0.814034
405.900,0.814018
406.000,0.814000
406.100,0.813984
406.200,0.813965
406.300,0.813950
406.400,0.813931
406.500,0.813915
406.600,0.813897
406.700,0.813882
406.800,0.813864
406.900,0.813848
407.000,0.813830
407.100,0.813815
407.200,0.813796
407.300,0.813781
407.400,0.813764
407.500,0.813751
407.600,0.813735
407.700,0.813722
407.800,0.813705
407.900,0.813692
408.000,0.813676
408.100,0.813663
408.200,0.813647
408.300,0.813634
408.400,0.813618
408.500,0.813605
408.600,0.813592
408.700,0.813576
408.800,0.813563
408.900,0.813548
409.000,0.813536
409.100,0.813522
409.200,0.813511
409.300,0.813497
409.400,0.813486
409.500,0.813472
409.600,0.813460
409.700,0.813447
409.800,0.813436
409.900,0.813422
410.000,0.813411
410.100,0.813398
410.200,0.813386
410.300,0.813373
410.400,0.813362
410.500,0.813348
410.600,0.813339
410.700,0.813327
410.800,0.813318
410.900,0.813306
411.000,0.813297
411.100,0.813285
411.200,0.813276
411.300,0.813264
411.400,0.813255
411.500,0.813243
411.600,0.813234
411.700,0.813225
411.800,0.813213
411.900,0.813204
412.000,0.813192
412.100,0.813183
412.200,0.813173
412.300,0.813166
412.400,0.813156
412.500,0.813148
412.600,0.813138
412.700,0.813131
412.800,0.813120
412.900,0.813113
413.000,0.813103
413.100,0.813095
413.200,0.813085
413.300,0.813078
413.400,0.813068
413.500,0.813061
413.600,0.813051
413.700,0.813044
413.800,0.813035
413.900,0.813029
414.000,0.813020
414.100,0.813015
414.200,0.813006
414.300,0.813000
414.400,0.812991
414.500,0.812985
414.600,0.812977
414.700,0.812971
414.800,0.812962
414.900,0.812957
415.000,0.812951
415.100,0.812942
415.200,0.812936
415.300,0.812931
415.400,0.812924
415.500,0.812919
415.600,0.812915
415.700,0.812910
415.800,0.812903
415.900,0.812898
416.000,0.812894
416.100,0.812886
416.200,0.812882
416.300,0.812878
416.400,0.812871
416.500,0.812866
416.600,0.812862
416.700,0.812854
416.800,0.812850
416.900,0.812846
417.000,0.812843
417.100,0.812836
417.200,0.812833
417.300,0.812829
417.400,0.812823
417.500,0.812820
417.600,0.812817
417.700,0.812810
417.800,0.812807
417.900,0.812803
418.000,0.812798
418.100,0.812794
418.200,0.812791
418.300,0.812787
418.400,0.812781
418.500,0.812778
418.600,0.812776
418.700,0.812771
418.800,0.812768
418.900,0.812766
419.000,0.812761
419.100,0.812759
419.200,0.812756
419.300,0.812751
419.400,0.812749
419.500,0.812746
419.600,0.812744
419.700,0.812739
419.800,0.812737
419.900,0.812734
420.000,0.812729
420.100,0.812727
420.200,0.812726
420.300,0.812722
420.400,0.812721
420.500,0.812719
420.600,0.812714
420.700,0.812713
420.800,0.812711
420.900,0.812710
421.000,0.812705
421.100,0.812704
421.200,0.812702
421.300,0.812698
421.400,0.812696
421.500,0.812694
421.600,0.812690
421.700,0.812690
421.800,0.812689
421.900,0.812688
422.000,0.812685
422.100,0.812684
422.200,0.812683
422.300,0.812679
422.400,0.812678
422.500,0.812677
422.600,0.812674
422.700,0.812673
422.800,0.812672
422.900,0.812668
423.000,0.812667
423.100,0.812667
423.200,0.812666
423.300,0.812663
423.400,0.812663
423.500,0.812662
423.600,0.812659
423.700,0.812659
423.800,0.812659
423.900,0.812655
424.000,0.812655
424.100,0.812655
424.200,0.812652
424.300,0.812652
424.400,0.812651
424.500,0.812651
424.600,0.812648
424.700,0.812647
424.800,0.812647
424.900,0.812644
425.000,0.812644
425.100,0.812645
425.200,0.812643
425.300,0.812642
425.400,0.812643
425.500,0.812640
425.600,0.812640
425.700,0.812640
425.800,0.812640
425.900,0.812638
426.000,0.812638
426.100,0.812637
426.200,0.812635
426.300,0.812635
426.400,0.812635
426.500,0.812633
426.600,0.812633
426.700,0.812634
426.800,0.812632
426.900,0.812632
427.000,0.812632
427.100,0.812633
427.200,0.812631
427.300,0.812631
427.400,0.812632
427.500,0.812629
427.600,0.812630
427.700,0.812630
427.800,0.812630
427.900,0.812630
428.000,0.812631
428.100,0.812631
428.200,0.812630
428.300,0.812630
428.400,0.812631
428.500,0.812631
428.600,0.812632
428.700,0.812633
428.800,0.812634
428.900,0.812635
429.000,0.812635
429.100,0.812635
429.200,0.812636
429.300,0.812636
429.400,0.812634
429.500,0.812634
429.600,0.812635
429.700,0.812636
429.800,0.812637
429.900,0.812638
430.000,0.812639
430.100,0.812639
430.200,0.812640
430.300,0.812640
430.400,0.812642
430.500,0.812643
430.600,0.812640
430.700,0.812641
430.800,0.812642
430.900,0.812642
431.000,0.812643
431.100,0.812643
431.200,0.812644
431.300,0.812645
431.400,0.812646
431.500,0.812647
431.600,0.812648
431.700,0.812648
431.800,0.812647
431.900,0.812648
432.000,0.812648
432.100,0.812649
432.200,0.812650
432.300,0.812650
432.400,0.812651
432.500,0.812651
432.600,0.812652
432.700,0.812653
432.800,0.812654
432.900,0.812655
433.000,0.812653
433.100,0.812653
433.200,0.812654
433.300,0.812655
433.400,0.812656
433.500,0.812657
433.600,0.812657
433.700,0.812658
433.800,0.812658
433.900,0.812659
434.000,0.812660
434.100,0.812660
434.200,0.812658
434.300,0.812658
434.400,0.812659
434.500,0.812660
434.600,0.812661
434.700,0.812662
434.800,0.812663
434.900,0.812663
435.000,0.812664
435.100,0.812664
435.200,0.812665
435.300,0.812666
435.400,0.812664
435.500,0.812664
435.600,0.812665
435.700,0.812665
435.800,0.812666
435.900,0.812667
436.000,0.812667
436.100,0.812668
436.200,0.812668
436.300,0.812669
436.400,0.812670
436.500,0.812670
436.600,0.812668
436.700,0.812669
436.800,0.812669
436.900,0.812669
437.000,0.812670
437.100,0.812671
437.200,0.812671
437.300,0.812671
437.400,0.812671
437.500,0.812672
437.600,0.812673
437.700,0.812673
437.800,0.812671
437.900,0.812671
438.000,0.812671
438.100,0.812672
438.200,0.812672
438.300,0.812672
438.400,0.812673
438.500,0.812673
438.600,0.812673
438.700,0.812674
438.800,0.812674
438.900,0.812674
439.000,0.812671
439.100,0.812671
439.200,0.812672
439.300,0.812672
439.400,0.812672
439.500,0.812673
439.600,0.812673
439.700,0.812673
439.800,0.812673
439.900,0.812671
440.000,0.812670
440.100,0.812670
440.200,0.812671
440.300,0.812671
440.400,0.812671
440.500,0.812671
440.600,0.812668
440.700,0.812668
440.800,0.812668
440.900,0.812668
441.000,0.812668
441.100,0.812668
441.200,0.812668
441.300,0.812665
441.400,0.812665
441.500,0.812665
441.600,0.812665
441.700,0.812664
441.800,0.812664
441.900,0.812664
442.000,0.812661
442.100,0.812661
442.200,0.812661
442.300,0.812660
442.400,0.812661
442.500,0.812660
442.600,0.812660
442.700,0.812657
442.800,0.812656
442.900,0.812656
443.000,0.812656
443.100,0.812656
443.200,0.812655
443.300,0.812655
443.400,0.812652
443.500,0.812651
443.600,0.812651
443.700,0.812650
443.800,0.812650
443.900,0.812649
444.000,0.812649
444.100,0.812645
444.200,0.812645
444.300,0.812645
444.400,0.812644
444.500,0.812643
444.600,0.812643
444.700,0.812642
444.800,0.812639
444.900,0.812638
445.000,0.812638
445.100,0.812637
445.200,0.812637
445.300,0.812636
445.400,0.812635
445.500,0.812631
445.600,0.812631
445.700,0.812630
445.800,0.812629
445.900,0.812628
446.000,0.812627
446.100,0.812627
446.200,0.812626
446.300,0.812622
446.400,0.812621
446.500,0.812620
446.600,0.812620
446.700,0.812618
446.800,0.812617
446.900,0.812616
447.000,0.812613
447.100,0.812612
447.200,0.812611
447.300,0.812610
447.400,0.812609
447.500,0.812608
447.600,0.812607
447.700,0.812603
447.800,0.812602
447.900,0.812601
448.000,0.812600
448.100,0.812598
448.200,0.812597
448.300,0.812596
448.400,0.812592
448.500,0.812591
448.600,0.812589
448.700,0.812588
448.800,0.812587
448.900,0.812586
449.000,0.812584
449.100,0.812580
449.200,0.812579
449.300,0.812578
449.400,0.812576
449.500,0.812575
449.600,0.812574
449.700,0.812572
449.800,0.812568
449.900,0.812566
450.000,0.812565
450.100,0.812564
450.200,0.812562
450.300,0.812560
450.400,0.812559
450.500,0.812555
450.600,0.812553
450.700,0.812551
450.800,0.812550
450.900,0.812549
451.000,0.812547
451.100,0.812545
451.200,0.812541
451.300,0.812539
451.400,0.812538
451.500,0.812536
451.600,0.812534
451.700,0.812532
451.800,0.812531
451.900,0.812526
452.000,0.812524
452.100,0.812523
452.200,0.812521
452.300,0.812519
452.400,0.812515
452.500,0.812512
452.600,0.812511
452.700,0.812509
452.800,0.812505
452.900,0.812502
453.000,0.812500
453.100,0.812498
453.200,0.812494
453.300,0.812492
453.400,0.812490
453.500,0.812488
453.600,0.812483
453.700,0.812481
453.800,0.812479
453.900,0.812475
454.000,0.812473
454.100,0.812471
454.200,0.812468
454.300,0.812464
454.400,0.812462
454.500,0.812459
454.600,0.812457
454.700,0.812453
454.800,0.812450
454.900,0.812448
455.000,0.812443
455.100,0.812441
455.200,0.812439
455.300,0.812436
455.400,0.812431
455.500,0.812429
455.600,0.812427
455.700,0.812424
455.800,0.812419
455.900,0.812417
456.000,0.812414
456.100,0.812412
456.200,0.812407
456.300,0.812405
456.400,0.812402
456.500,0.812397
456.600,0.812395
456.700,0.812392
456.800,0.812389
456.900,0.812384
457.000,0.812382
457.100,0.812379
457.200,0.812376
457.300,0.812371
457.400,0.812369
457.500,0.812366
457.600,0.812361
457.700,0.812358
457.800,0.812355
457.900,0.812353
458.000,0.812348
458.100,0.812345
458.200,0.812342
458.300,0.812339
458.400,0.812334
458.500,0.812331
458.600,0.812328
458.700,0.812325
458.800,0.812319
458.900,0.812316
459.000,0.812313
459.100,0.812308
459.200,0.812305
459.300,0.812302
459.400,0.812300
459.500,0.812294
459.600,0.812291
459.700,0.812288
459.800,0.812285
459.900,0.812279
460.000,0.812275
460.100,0.812272
460.200,0.812267
460.300,0.812264
460.400,0.812260
460.500,0.812257
460.600,0.812251
460.700,0.812248
460.800,0.812245
460.900,0.812241
461.000,0.812235
461.100,0.812232
461.200,0.812229
461.300,0.812226
461.400,0.812219
461.500,0.812216
461.600,0.812212
461.700,0.812206
461.800,0.812202
461.900,0.812199
462.000,0.812195
462.100,0.812189
462.200,0.812185
462.300,0.812181
462.400,0.812178
462.500,0.812172
462.600,0.812168
462.700,0.812165
462.800,0.812158
462.900,0.812154
463.000,0.812150
463.100,0.812146
463.200,0.812140
463.300,0.812136
463.400,0.812132
463.500,0.812128
463.600,0.812121
463.700,0.812117
463.800,0.812113
463.900,0.812109
464.000,0.812102
464.100,0.812098
464.200,0.812094
464.300,0.812090
464.400,0.812086
464.500,0.812081
464.600,0.812079
464.700,0.812075
464.800,0.812070
464.900,0.812066
465.000,0.812061
465.100,0.812057
465.200,0.812052
465.300,0.812048
465.400,0.812044
465.500,0.812039
465.600,0.812037
465.700,0.812033
465.800,0.812028
465.900,0.812023
466.000,0.812019
466.100,0.812014
466.200,0.812008
466.300,0.812004
466.400,0.811998
466.500,0.811993
466.600,0.811990
466.700,0.811985
466.800,0.811980
466.900,0.811975
467.000,0.811970
467.100,0.811965
467.200,0.811959
467.300,0.811954
467.400,0.811949
467.500,0.811944
467.600,0.811942
467.700,0.811936
467.800,0.811930
467.900,0.811924
468.000,0.811918
468.100,0.811912
468.200,0.811907
468.300,0.811901
468.400,0.811895
468.500,0.811890
468.600,0.811886
468.700,0.811880
468.800,0.811875
468.900,0.811868
469.000,0.811862
469.100,0.811857
469.200,0.811851
469.300,0.811844
469.400,0.811838
469.500,0.811831
469.600,0.811827
469.700,0.811820
469.800,0.811814
469.900,0.811807
470.000,0.811800
470.100,0.811794
470.200,0.811787
470.300,0.811781
470.400,0.811774
470.500,0.811767
470.600,0.811763
470.700,0.811756
470.800,0.811749
470.900,0.811742
471.000,0.811734
471.100,0.811727
471.200,0.811720
471.300,0.811712
471.400,0.811704
471.500,0.811697
471.600,0.811691
471.700,0.811684
471.800,0.811676
471.900,0.811669
472.000,0.811661
472.100,0.811654
472.200,0.811646
472.300,0.811639
472.400,0.811631
472.500,0.811622
472.600,0.811616
472.700,0.811608
472.800,0.811599
472.900,0.811591
473.000,0.811582
473.100,0.811574
473.200,0.811565
473.300,0.811556
473.400,0.811547
473.500,0.811539
473.600,0.811533
473.700,0.811525
473.800,0.811516
473.900,0.811507
474.000,0.811498
474.100,0.811489
474.200,0.811479
474.300,0.811469
474.400,0.811459
474.500,0.811449
474.600,0.811442
474.700,0.811433
474.800,0.811422
474.900,0.811413
475.000,0.811403
475.100,0.811393
475.200,0.811383
475.300,0.811373
475.400,0.811364
475.500,0.811354
475.600,0.811346
475.700,0.811335
475.800,0.811324
475.900,0.811313
476.000,0.811302
476.100,0.811291
476.200,0.811279
476.300,0.811269
476.400,0.811257
476.500,0.811246
476.600,0.811235
476.700,0.811224
476.800,0.811212
476.900,0.811202
477.000,0.811190
477.100,0.811179
477.200,0.811165
477.300,0.811152
477.400,0.811140
477.500,0.811128
477.600,0.811115
477.700,0.811102
477.800,0.811090
477.900,0.811077
478.000,0.811065
478.100,0.811052
478.200,0.811040
478.300,0.811027
478.400,0.811014
478.500,0.811002
478.600,0.810989
478.700,0.810977
478.800,0.810963
478.900,0.810949
479.000,0.810935
479.100,0.810921
479.200,0.810906
479.300,0.810893
479.400,0.810879
479.500,0.810862
479.600,0.810848
479.700,0.810833
479.800,0.810819
479.900,0.810805
480.000,0.810791
480.100,0.810777
480.200,0.810763
480.300,0.810748
480.400,0.810734
480.500,0.810718
480.600,0.810701
480.700,0.810686
480.800,0.810670
480.900,0.810654
481.000,0.810638
481.100,0.810622
481.200,0.810607
481.300,0.810590
481.400,0.810575
481.500,0.810559
481.600,0.810543
481.700,0.810525
481.800,0.810509
481.900,0.810493
482.000,0.810476
482.100,0.810458
482.200,0.810441
482.300,0.810423
482.400,0.810405
482.500,0.810387
482.600,0.810370
482.700,0.810352
482.800,0.810334
482.900,0.810317
483.000,0.810299
483.100,0.810281
483.200,0.810264
483.300,0.810246
483.400,0.810228
483.500,0.810211
483.600,0.810192
483.700,0.810172
483.800,0.810152
483.900,0.810133
484.000,0.810111
484.100,0.810092
484.200,0.810072
484.300,0.810053
484.400,0.810033
484.500,0.810013
484.600,0.809994
484.700,0.809974
484.800,0.809955
484.900,0.809935
485.000,0.809915
485.100,0.809896
485.200,0.809875
485.300,0.809854
485.400,0.809832
485.500,0.809810
485.600,0.809789
485.700,0.809767
485.800,0.809746
485.900,0.809724
486.000,0.809703
486.100,0.809682
486.200,0.809661
486.300,0.809636
486.400,0.809615
486.500,0.809593
486.600,0.809572
486.700,0.809551
486.800,0.809527
486.900,0.809504
487.000,0.809481
487.100,0.809457
487.200,0.809434
487.300,0.809411
487.400,0.809387
487.500,0.809364
487.600,0.809341
487.700,0.809318
487.800,0.809295
487.900,0.809271
488.000,0.809248
488.100,0.809224
488.200,0.809201
488.300,0.809178
488.400,0.809153
488.500,0.809125
488.600,0.809100
488.700,0.809075
488.800,0.809050
488.900,0.809025
489.000,0.808999
489.100,0.808974
489.200,0.808949
489.300,0.808924
489.400,0.808899
489.500,0.808874
489.600,0.808849
489.700,0.808823
489.800,0.808799
489.900,0.808770
490.000,0.808744
490.100,0.808717
490.200,0.808690
490.300,0.808661
490.400,0.808634
490.500,0.808607
490.600,0.808580
490.700,0.808551
490.800,0.808524
490.900,0.808497
491.000,0.808471
491.100,0.808444
491.200,0.808415
491.300,0.808387
491.400,0.808361
491.500,0.808334
491.600,0.808303
491.700,0.808275
491.800,0.808246
491.900,0.808218
492.000,0.808187
492.100,0.808158
492.200,0.808131
492.300,0.808102
492.400,0.808074
492.500,0.808043
492.600,0.808015
492.700,0.807987
492.800,0.807958
492.900,0.807927
493.000,0.807899
493.100,0.807871
493.200,0.807841
493.300,0.807811
493.400,0.807779
493.500,0.807750
493.600,0.807720
493.700,0.807691
493.800,0.807659
493.900,0.807629
494.000,0.807600
494.100,0.807571
494.200,0.807539
494.300,0.807509
494.400,0.807480
494.500,0.807451
494.600,0.807421
494.700,0.807389
494.800,0.807358
494.900,0.807327
495.000,0.807297
495.100,0.807264
495.200,0.807234
495.300,0.807203
495.400,0.807173
495.500,0.807140
495.600,0.807110
495.700,0.807079
495.800,0.807049
495.900,0.807019
496.000,0.806985
496.100,0.806955
496.200,0.806925
496.300,0.806894
496.400,0.806861
496.500,0.806830
496.600,0.806799
496.700,0.806768
496.800,0.806735
496.900,0.806704
497.000,0.806673
497.100,0.806642
497.200,0.806611
497.300,0.806578
497.400,0.806547
497.500,0.806516
497.600,0.806485
497.700,0.806451
497.800,0.806421
497.900,0.806390
498.000,0.806358
498.100,0.806328
498.200,0.806294
498.300,0.806262
498.400,0.806231
498.500,0.806200
498.600,0.806166
498.700,0.806135
498.800,0.806104
498.900,0.806073
499.000,0.806039
499.100,0.806008
499.200,0.805977
499.300,0.805946
499.400,0.805914
499.500,0.805880
499.600,0.805849
499.700,0.805819
499.800,0.805788
499.900,0.805754
500.000,0.805723
500.100,0.805692
500.200,0.805660
500.300,0.805626
500.400,0.805595
500.500,0.805564
500.600,0.805533
500.700,0.805502
500.800,0.805468
500.900,0.805437
501.000,0.805406
501.100,0.805375
501.200,0.805342
501.300,0.805311
501.400,0.805281
501.500,0.805250
501.600,0.805216
501.700,0.805185
501.800,0.805155
501.900,0.805124
502.000,0.805093
502.100,0.805060
502.200,0.805029
502.300,0.804998
502.400,0.804967
502.500,0.804934
502.600,0.804903
502.700,0.804873
502.800,0.804842
502.900,0.804810
503.000,0.804780
503.100,0.804750
503.200,0.804719
503.300,0.804689
503.400,0.804656
503.500,0.804626
503.600,0.804596
503.700,0.804565
503.800,0.804532
503.900,0.804502
504.000,0.804472
504.100,0.804441
504.200,0.804411
504.300,0.804379
504.400,0.804349
504.500,0.804320
504.600,0.804290
504.700,0.804258
504.800,0.804228
504.900,0.804199
505.000,0.804169
505.100,0.804137
505.200,0.804107
505.300,0.804078
505.400,0.804048
505.500,0.804018
505.600,0.803985
505.700,0.803956
505.800,0.803926
505.900,0.803897
506.000,0.803865
506.100,0.803836
506.200,0.803808
506.300,0.803779
506.400,0.803748
506.500,0.803718
506.600,0.803689
506.700,0.803660
506.800,0.803631
506.900,0.803599
507.000,0.803570
507.100,0.803541
507.200,0.803512
507.300,0.803479
507.400,0.803451
507.500,0.803422
507.600,0.803394
507.700,0.803366
507.800,0.803335
507.900,0.803307
508.000,0.803279
508.100,0.803251
508.200,0.803220
508.300,0.803192
508.400,0.803163
508.500,0.803135
508.600,0.803106
508.700,0.803075
508.800,0.803046
508.900,0.803018
509.000,0.802989
509.100,0.802959
509.200,0.802932
509.300,0.802905
509.400,0.802877
509.500,0.802849
509.600,0.802819
509.700,0.802791
509.800,0.802764
509.900,0.802736
510.000,0.802708
510.100,0.802677
510.200,0.802649
510.300,0.802621
510.400,0.802593
510.500,0.802562
510.600,0.802534
510.700,0.802508
510.800,0.802481
510.900,0.802454
511.000,0.802425
511.100,0.802398
511.200,0.802371
511.300,0.802344
511.400,0.802314
511.500,0.802287
511.600,0.802260
511.700,0.802232
511.800,0.802205
511.900,0.802175
512.000,0.802147
512.100,0.802119
512.200,0.802093
512.300,0.802064
512.400,0.802037
512.500,0.802011
512.600,0.801985
512.700,0.801958
512.800,0.801929
512.900,0.801902
513.000,0.801876
513.100,0.801849
513.200,0.801819
513.300,0.801792
513.400,0.801766
513.500,0.801738
513.600,0.801711
513.700,0.801681
513.800,0.801655
513.900,0.801629
514.000,0.801603
514.100,0.801575
514.200,0.801549
514.300,0.801523
514.400,0.801497
514.500,0.801471
514.600,0.801442
514.700,0.801416
514.800,0.801389
514.900,0.801363
515.000,0.801334
515.100,0.801307
515.200,0.801280
515.300,0.801254
515.400,0.801228
515.500,0.801200
515.600,0.801175
515.700,0.801149
515.800,0.801124
515.900,0.801095
516.000,0.801070
516.100,0.801044
516.200,0.801018
516.300,0.800992
516.400,0.800963
516.500,0.800937
516.600,0.800911
516.700,0.800885
516.800,0.800859
516.900,0.800829
517.000,0.800804
517.100,0.800779
517.200,0.800754
517.300,0.800726
517.400,0.800701
517.500,0.800676
517.600,0.800651
517.700,0.800625
517.800,0.800597
517.900,0.800571
518.000,0.800546
518.100,0.800520
518.200,0.800491
518.300,0.800465
518.400,0.800439
518.500,0.800413
518.600,0.800388
518.700,0.800361
518.800,0.800336
518.900,0.800311
519.000,0.800286
519.100,0.800259
519.200,0.800234
519.300,0.800208
519.400,0.800183
519.500,0.800158
519.600,0.800129
519.700,0.800104
519.800,0.800078
519.900,0.800053
520.000,0.800024
520.100,0.799998
520.200,0.799974
520.300,0.799949
520.400,0.799924
520.500,0.799897
520.600,0.799872
520.700,0.799847
520.800,0.799822
520.900,0.799795
521.000,0.799769
521.100,0.799744
521.200,0.799719
521.300,0.799694
521.400,0.799665
521.500,0.799640
521.600,0.799614
521.700,0.799589
521.800,0.799561
521.900,0.799537
522.000,0.799512
522.100,0.799488
522.200,0.799463
522.300,0.799435
522.400,0.799410
522.500,0.799385
522.600,0.799360
522.700,0.799332
522.800,0.799307
522.900,0.799282
523.000,0.799256
523.100,0.799231
523.200,0.799203
523.300,0.799177
523.400,0.799153
523.500,0.799128
523.600,0.799103
523.700,0.799076
523.800,0.799051
523.900,0.799026
524.000,0.799001
524.100,0.798972
524.200,0.798948
524.300,0.798922
524.400,0.798897
524.500,0.798871
524.600,0.798843
524.700,0.798818
524.800,0.798792
524.900,0.798767
525.000,0.798739
525.100,0.798714
525.200,0.798689
525.300,0.798664
525.400,0.798639
525.500,0.798611
525.600,0.798586
525.700,0.798561
525.800,0.798535
525.900,0.798507
526.000,0.798482
526.100,0.798456
526.200,0.798430
526.300,0.798402
526.400,0.798376
526.500,0.798351
526.600,0.798325
526.700,0.798297
526.800,0.798273
526.900,0.798247
527.000,0.798222
527.100,0.798194
527.200,0.798168
527.300,0.798142
527.400,0.798117
527.500,0.798089
527.600,0.798063
527.700,0.798037
527.800,0.798011
527.900,0.797982
528.000,0.797956
528.100,0.797930
528.200,0.797904
528.300,0.797876
528.400,0.797850
528.500,0.797825
528.600,0.797799
528.700,0.797770
528.800,0.797744
528.900,0.797718
529.000,0.797692
529.100,0.797663
529.200,0.797637
529.300,0.797611
529.400,0.797585
529.500,0.797555
529.600,0.797529
529.700,0.797502
529.800,0.797476
529.900,0.797447
530.000,0.797421
530.100,0.797394
530.200,0.797368
530.300,0.797339
530.400,0.797312
530.500,0.797286
530.600,0.797259
530.700,0.797229
530.800,0.797202
530.900,0.797175
531.000,0.797149
531.100,0.797119
531.200,0.797091
531.300,0.797064
531.400,0.797034
531.500,0.797008
531.600,0.796981
531.700,0.796954
531.800,0.796924
531.900,0.796897
532.000,0.796870
532.100,0.796842
532.200,0.796812
532.300,0.796784
532.400,0.796757
532.500,0.796729
532.600,0.796699
532.700,0.796671
532.800,0.796644
532.900,0.796616
533.000,0.796585
533.100,0.796557
533.200,0.796529
533.300,0.796501
533.400,0.796470
533.500,0.796442
533.600,0.796413
533.700,0.796385
533.800,0.796353
533.900,0.796325
534.000,0.796297
534.100,0.796269
534.200,0.796237
534.300,0.796208
534.400,0.796179
534.500,0.796150
534.600,0.796118
534.700,0.796089
534.800,0.796061
534.900,0.796031
535.000,0.795999
535.100,0.795969
535.200,0.795941
535.300,0.795911
535.400,0.795878
535.500,0.795849
535.600,0.795819
535.700,0.795790
535.800,0.795757
535.900,0.795727
536.000,0.795697
536.100,0.795666
536.200,0.795634
536.300,0.795603
536.400,0.795573
536.500,0.795539
536.600,0.795509
536.700,0.795478
536.800,0.795447
536.900,0.795413
537.000,0.795382
537.100,0.795351
537.200,0.795320
537.300,0.795286
537.400,0.795255
537.500,0.795223
537.600,0.795192
537.700,0.795157
537.800,0.795125
537.900,0.795094
538.000,0.795061
538.100,0.795025
538.200,0.794993
538.300,0.794961
538.400,0.794928
538.500,0.794892
538.600,0.794860
538.700,0.794827
538.800,0.794794
538.900,0.794757
539.000,0.794725
539.100,0.794691
539.200,0.794658
539.300,0.794621
539.400,0.794587
539.500,0.794554
539.600,0.794519
539.700,0.794482
539.800,0.794447
539.900,0.794412
540.000,0.794378
540.100,0.794340
540.200,0.794304
540.300,0.794270
540.400,0.794234
540.500,0.794195
540.600,0.794160
540.700,0.794125
540.800,0.794089
540.900,0.794050
541.000,0.794013
541.100,0.793976
541.200,0.793939
541.300,0.793899
541.400,0.793861
541.500,0.793824
541.600,0.793783
541.700,0.793745
541.800,0.793708
541.900,0.793669
542.000,0.793628
542.100,0.793590
542.200,0.793552
542.300,0.793513
542.400,0.793472
542.500,0.793431
542.600,0.793392
542.700,0.793352
542.800,0.793308
542.900,0.793267
543.000,0.793226
543.100,0.793184
543.200,0.793140
543.300,0.793098
543.400,0.793057
543.500,0.793014
543.600,0.792970
543.700,0.792927
543.800,0.792885
543.900,0.792842
544.000,0.792797
544.100,0.792753
544.200,0.792709
544.300,0.792664
544.400,0.792616
544.500,0.792571
544.600,0.792525
544.700,0.792479
544.800,0.792430
544.900,0.792383
545.000,0.792337
545.100,0.792290
545.200,0.792240
545.300,0.792193
545.400,0.792146
545.500,0.792099
545.600,0.792048
545.700,0.791999
545.800,0.791950
545.900,0.791901
546.000,0.791847
546.100,0.791797
546.200,0.791746
546.300,0.791694
546.400,0.791640
546.500,0.791588
546.600,0.791536
546.700,0.791484
546.800,0.791432
546.900,0.791379
547.000,0.791327
547.100,0.791273
547.200,0.791217
547.300,0.791162
547.400,0.791107
547.500,0.791052
547.600,0.790996
547.700,0.790938
547.800,0.790880
547.900,0.790823
548.000,0.790766
548.100,0.790707
548.200,0.790648
548.300,0.790590
548.400,0.790531
548.500,0.790472
548.600,0.790409
548.700,0.790349
548.800,0.790289
548.900,0.790227
549.000,0.790166
549.100,0.790103
549.200,0.790039
549.300,0.789975
549.400,0.789911
549.500,0.789846
549.600,0.789780
549.700,0.789714
549.800,0.789649
549.900,0.789579
550.000,0.789513
550.100,0.789446
550.200,0.789379
550.300,0.789310
550.400,0.789242
550.500,0.789173
550.600,0.789104
550.700,0.789033
550.800,0.788961
550.900,0.788888
551.000,0.788814
551.100,0.788740
551.200,0.788662
551.300,0.788588
551.400,0.788513
551.500,0.788438
551.600,0.788362
551.700,0.788286
551.800,0.788209
551.900,0.788132
552.000,0.788055
552.100,0.787976
552.200,0.787897
552.300,0.787817
552.400,0.787734
552.500,0.787651
552.600,0.787564
552.700,0.787482
552.800,0.787397
552.900,0.787312
553.000,0.787228
553.100,0.787142
553.200,0.787055
553.300,0.786968
553.400,0.786882
553.500,0.786794
553.600,0.786705
553.700,0.786617
553.800,0.786527
553.900,0.786431
554.000,0.786338
554.100,0.786245
554.200,0.786150
554.300,0.786055
554.400,0.785960
554.500,0.785863
554.600,0.785766
554.700,0.785669
554.800,0.785572
554.900,0.785472
555.000,0.785374
555.100,0.785274
555.200,0.785170
555.300,0.785070
555.400,0.784968
555.500,0.784863
555.600,0.784758
555.700,0.784652
555.800,0.784546
555.900,0.784438
556.000,0.784329
556.100,0.784222
556.200,0.784112
556.300,0.784001
556.400,0.783891
556.500,0.783780
556.600,0.783665
556.700,0.783552
556.800,0.783438
556.900,0.783325
557.000,0.783211
557.100,0.783093
557.200,0.782974
557.300,0.782857
557.400,0.782736
557.500,0.782615
557.600,0.782496
557.700,0.782373
557.800,0.782251
557.900,0.782125
558.000,0.782000
558.100,0.781875
558.200,0.781749
558.300,0.781625
558.400,0.781497
558.500,0.781371
558.600,0.781243
558.700,0.781114
558.800,0.780982
558.900,0.780851
559.000,0.780718
559.100,0.780586
559.200,0.780447
559.300,0.780314
559.400,0.780177
559.500,0.780042
559.600,0.779905
559.700,0.779768
559.800,0.779629
559.900,0.779490
560.000,0.779352
560.100,0.779213
560.200,0.779071
560.300,0.778929
560.400,0.778787
560.500,0.778644
560.600,0.778497
560.700,0.778351
560.800,0.778207
560.900,0.778060
561.000,0.777914
561.100,0.777765
561.200,0.777617
561.300,0.777468
561.400,0.777318
561.500,0.777168
561.600,0.777020
561.700,0.776868
561.800,0.776718
561.900,0.776565
562.000,0.776413
562.100,0.776260
562.200,0.776109
562.300,0.775955
562.400,0.775802
562.500,0.775647
562.600,0.775493
562.700,0.775337
562.800,0.775180
562.900,0.775023
563.000,0.774866
563.100,0.774709
563.200,0.774547
563.300,0.774392
563.400,0.774235
563.500,0.774079
563.600,0.773925
563.700,0.773768
563.800,0.773611
563.900,0.773454
564.000,0.773297
564.100,0.773139
564.200,0.772981
564.300,0.772824
564.400,0.772664
564.500,0.772504
564.600,0.772342
564.700,0.772181
564.800,0.772025
564.900,0.771868
565.000,0.771712
565.100,0.771559
565.200,0.771405
565.300,0.771252
565.400,0.771102
565.500,0.770947
565.600,0.770793
565.700,0.770638
565.800,0.770485
565.900,0.770332
566.000,0.770177
566.100,0.770022
566.200,0.769869
566.300,0.769716
566.400,0.769568
566.500,0.769414
566.600,0.769270
566.700,0.769130
566.800,0.768988
566.900,0.768848
567.000,0.768707
567.100,0.768567
567.200,0.768427
567.300,0.768287
567.400,0.768147
567.500,0.768008
567.600,0.767870
567.700,0.767733
567.800,0.767594
567.900,0.767460
568.000,0.767328
568.100,0.767200
568.200,0.767077
568.300,0.766956
568.400,0.766838
568.500,0.766723
568.600,0.766606
568.700,0.766490
568.800,0.766373
568.900,0.766261
569.000,0.766147
569.100,0.766030
569.200,0.765918
569.300,0.765806
569.400,0.765700
569.500,0.765595
569.600,0.765490
569.700,0.765394
569.800,0.765305
569.900,0.765218
570.000,0.765137
570.100,0.765050
570.200,0.764972
570.300,0.764891
570.400,0.764811
570.500,0.764737
570.600,0.764660
570.700,0.764585
570.800,0.764512
570.900,0.764438
571.000,0.764372
571.100,0.764306
571.200,0.764245
571.300,0.764190
571.400,0.764142
571.500,0.764105
571.600,0.764063
571.700,0.764023
571.800,0.763989
571.900,0.763956
572.000,0.763920
572.100,0.763893
572.200,0.763862
572.300,0.763835
572.400,0.763815
572.500,0.763787
572.600,0.763769
572.700,0.763756
572.800,0.763745
572.900,0.763743
573.000,0.763743
573.100,0.763758
573.200,0.763773
573.300,0.763783
573.400,0.763803
573.500,0.763823
573.600,0.763840
573.700,0.763866
573.800,0.763886
573.900,0.763914
574.000,0.763948
574.100,0.763973
574.200,0.764007
574.300,0.764048
574.400,0.764092
574.500,0.764144
574.600,0.764199
574.700,0.764267
574.800,0.764336
574.900,0.764401
575.000,0.764474
575.100,0.764546
575.200,0.764617
575.300,0.764696
575.400,0.764771
575.500,0.764851
575.600,0.764938
575.700,0.765019
575.800,0.765107
575.900,0.765208
576.000,0.765301
576.100,0.765412
576.200,0.765515
576.300,0.765631
576.400,0.765751
576.500,0.765863
576.600,0.765984
576.700,0.766107
576.800,0.766222
576.900,0.766354
577.000,0.766473
577.100,0.766605
577.200,0.766741
577.300,0.766868
577.400,0.767004
577.500,0.767154
577.600,0.767292
577.700,0.767445
577.800,0.767601
577.900,0.767748
578.000,0.767906
578.100,0.768057
578.200,0.768219
578.300,0.768384
578.400,0.768537
578.500,0.768709
578.600,0.768874
578.700,0.769035
578.800,0.769206
578.900,0.769372
579.000,0.769544
579.100,0.769728
579.200,0.769899
579.300,0.770083
579.400,0.770267
579.500,0.770440
579.600,0.770630
579.700,0.770814
579.800,0.770994
579.900,0.771186
580.000,0.771365
580.100,0.771560
580.200,0.771752
580.300,0.771938
580.400,0.772133
580.500,0.772331
580.600,0.772520
580.700,0.772721
580.800,0.772924
580.900,0.773113
581.000,0.773309
581.100,0.773497
581.200,0.773698
581.300,0.773899
581.400,0.774088
581.500,0.774293
581.600,0.774493
581.700,0.774686
581.800,0.774888
581.900,0.775093
582.000,0.775288
582.100,0.775492
582.200,0.775690
582.300,0.775897
582.400,0.776105
582.500,0.776295
582.600,0.776496
582.700,0.776693
582.800,0.776881
582.900,0.777082
583.000,0.777279
583.100,0.777472
583.200,0.777671
583.300,0.777872
583.400,0.778064
583.500,0.778266
583.600,0.778459
583.700,0.778663
583.800,0.778864
583.900,0.779055
584.000,0.779253
584.100,0.779441
584.200,0.779620
584.300,0.779805
584.400,0.779992
584.500,0.780166
584.600,0.780354
584.700,0.780543
584.800,0.780719
584.900,0.780906
585.000,0.781085
585.100,0.781273
585.200,0.781463
585.300,0.781640
585.400,0.781829
585.500,0.782007
585.600,0.782174
585.700,0.782341
585.800,0.782508
585.900,0.782661
586.000,0.782828
586.100,0.782992
586.200,0.783148
586.300,0.783316
586.400,0.783473
586.500,0.783635
586.600,0.783802
586.700,0.783956
586.800,0.784123
586.900,0.784288
587.000,0.784445
587.100,0.784587
587.200,0.784735
587.300,0.784855
587.400,0.784992
587.500,0.785122
587.600,0.785247
587.700,0.785379
587.800,0.785515
587.900,0.785634
588.000,0.785770
588.100,0.785894
588.200,0.786026
588.300,0.786157
588.400,0.786280
588.500,0.786414
588.600,0.786543
588.700,0.786644
588.800,0.786754
588.900,0.786856
589.000,0.786943
589.100,0.787044
589.200,0.787146
589.300,0.787236
589.400,0.787338
589.500,0.787439
589.600,0.787530
589.700,0.787631
589.800,0.787733
589.900,0.787823
590.000,0.787922
590.100,0.788013
590.200,0.788109
590.300,0.788193
590.400,0.788268
590.500,0.788345
590.600,0.788421
590.700,0.788488
590.800,0.788566
590.900,0.788644
591.000,0.788709
591.100,0.788787
591.200,0.788863
591.300,0.788933
591.400,0.789009
591.500,0.789087
591.600,0.789152
591.700,0.789233
591.800,0.789301
591.900,0.789356
592.000,0.789417
592.100,0.789476
592.200,0.789522
592.300,0.789577
592.400,0.789639
592.500,0.789683
592.600,0.789745
592.700,0.789789
592.800,0.789852
592.900,0.789907
593.000,0.789957
593.100,0.790014
593.200,0.790075
593.300,0.790124
593.400,0.790179
593.500,0.790223
593.600,0.790254
593.700,0.790294
593.800,0.790342
593.900,0.790373
594.000,0.790417
594.100,0.790458
594.200,0.790494
594.300,0.790537
594.400,0.790582
594.500,0.790612
594.600,0.790660
594.700,0.790702
594.800,0.790737
594.900,0.790781
595.000,0.790820
595.100,0.790838
595.200,0.790874
595.300,0.790902
595.400,0.790924
595.500,0.790955
595.600,0.790987
595.700,0.791012
595.800,0.791044
595.900,0.791077
596.000,0.791098
596.100,0.791135
596.200,0.791168
596.300,0.791190
596.400,0.791223
596.500,0.791261
596.600,0.791275
596.700,0.791296
596.800,0.791321
596.900,0.791336
597.000,0.791362
597.100,0.791374
597.200,0.791401
597.300,0.791427
597.400,0.791442
597.500,0.791468
597.600,0.791496
597.700,0.791512
597.800,0.791540
597.900,0.791567
598.000,0.791583
598.100,0.791610
598.200,0.791631
598.300,0.791637
598.400,0.791656
598.500,0.791681
598.600,0.791693
598.700,0.791716
598.800,0.791740
598.900,0.791749
599.000,0.791775
599.100,0.791797
599.200,0.791811
599.300,0.791834
599.400,0.791861
599.500,0.791875
599.600,0.791902
599.700,0.791925
599.800,0.791934
599.900,0.791947
600.000,0.791971
600.100,0.791982
600.200,0.792008
600.300,0.792032
600.400,0.792050
600.500,0.792074
600.600,0.792101
600.700,0.792112
600.800,0.792140
600.900,0.792166
601.000,0.792182
601.100,0.792209
601.200,0.792238
601.300,0.792251
601.400,0.792278
601.500,0.792294
601.600,0.792315
601.700,0.792343
601.800,0.792378
601.900,0.792399
602.000,0.792428
602.100,0.792464
602.200,0.792482
602.300,0.792519
602.400,0.792549
602.500,0.792574
602.600,0.792609
602.700,0.792645
602.800,0.792668
602.900,0.792704
603.000,0.792739
603.100,0.792770
603.200,0.792800
603.300,0.792848
603.400,0.792893
603.500,0.792928
603.600,0.792971
603.700,0.793020
603.800,0.793054
603.900,0.793107
604.000,0.793156
604.100,0.793188
604.200,0.793238
604.300,0.793291
604.400,0.793328
604.500,0.793383
604.600,0.793432
604.700,0.793471
604.800,0.793536
604.900,0.793605
605.000,0.793655
605.100,0.793725
605.200,0.793793
605.300,0.793847
605.400,0.793916
605.500,0.793987
605.600,0.794048
605.700,0.794120
605.800,0.794193
605.900,0.794250
606.000,0.794328
606.100,0.794405
606.200,0.794469
606.300,0.794552
606.400,0.794652
606.500,0.794734
606.600,0.794830
606.700,0.794930
606.800,0.795018
606.900,0.795119
607.000,0.795226
607.100,0.795310
607.200,0.795418
607.300,0.795525
607.400,0.795635
607.500,0.795724
607.600,0.795836
607.700,0.795947
607.800,0.796054
607.900,0.796183
608.000,0.796324
608.100,0.796447
608.200,0.796593
608.300,0.796735
608.400,0.796867
608.500,0.797014
608.600,0.797161
608.700,0.797296
608.800,0.797446
608.900,0.797597
609.000,0.797735
609.100,0.797893
609.200,0.798051
609.300,0.798192
609.400,0.798375
609.500,0.798561
609.600,0.798742
609.700,0.798943
609.800,0.799140
609.900,0.799327
610.000,0.799526
610.100,0.799735
610.200,0.799940
610.300,0.800138
610.400,0.800348
610.500,0.800565
610.600,0.800761
610.700,0.800984
610.800,0.801201
610.900,0.801409
611.000,0.801666
611.100,0.801925
611.200,0.802181
611.300,0.802450
611.400,0.802728
611.500,0.802983
611.600,0.803264
611.700,0.803547
611.800,0.803813
611.900,0.804101
612.000,0.804392
612.100,0.804685
612.200,0.804965
612.300,0.805260
612.400,0.805566
612.500,0.805854
612.600,0.806201
612.700,0.806560
612.800,0.806904
612.900,0.807263
613.000,0.807631
613.100,0.807989
613.200,0.808361
613.300,0.808740
613.400,0.809099
613.500,0.809483
613.600,0.809873
613.700,0.810247
613.800,0.810639
613.900,0.811035
614.000,0.811442
614.100,0.811831
614.200,0.812291
614.300,0.812750
614.400,0.813197
614.500,0.813666
614.600,0.814136
614.700,0.814591
614.800,0.815068
614.900,0.815558
615.000,0.816023
615.100,0.816513
615.200,0.817005
615.300,0.817484
615.400,0.817986
615.500,0.818489
615.600,0.819004
615.700,0.819507
615.800,0.820077
615.900,0.820652
616.000,0.821212
616.100,0.821793
616.200,0.822377
616.300,0.822948
616.400,0.823542
616.500,0.824143
616.600,0.824717
616.700,0.825322
616.800,0.825930
616.900,0.826523
617.000,0.827139
617.100,0.827749
617.200,0.828376
617.300,0.829001
617.400,0.829690
617.500,0.830372
617.600,0.831046
617.700,0.831736
617.800,0.832428
617.900,0.833116
618.000,0.833814
618.100,0.834526
618.200,0.835211
618.300,0.835924
618.400,0.836639
618.500,0.837358
618.600,0.838060
618.700,0.838788
618.800,0.839512
618.900,0.840247
619.000,0.841022
619.100,0.841802
619.200,0.842565
619.300,0.843350
619.400,0.844130
619.500,0.844903
619.600,0.845690
619.700,0.846481
619.800,0.847273
619.900,0.848051
620.000,0.848850
620.100,0.849645
620.200,0.850430
620.300,0.851234
620.400,0.852036
620.500,0.852844
620.600,0.853689
620.700,0.854527
620.800,0.855351
620.900,0.856195
621.000,0.857033
621.100,0.857876
621.200,0.858699
621.300,0.859546
621.400,0.860392
621.500,0.861216
621.600,0.862068
621.700,0.862907
621.800,0.863741
621.900,0.864583
622.000,0.865429
622.100,0.866296
622.200,0.867131
622.300,0.867991
622.400,0.868838
622.500,0.869682
622.600,0.870532
622.700,0.871381
622.800,0.872214
622.900,0.873061
623.000,0.873912
623.100,0.874760
623.200,0.875594
623.300,0.876435
623.400,0.877277
623.500,0.878105
623.600,0.878947
623.700,0.879792
623.800,0.880603
623.900,0.881430
624.000,0.882253
624.100,0.883074
624.200,0.883879
624.300,0.884687
624.400,0.885509
624.500,0.886304
624.600,0.887118
624.700,0.887922
624.800,0.888713
624.900,0.889514
625.000,0.890312
625.100,0.891100
625.200,0.891892
625.300,0.892675
625.400,0.893431
625.500,0.894179
625.600,0.894929
625.700,0.895685
625.800,0.896419
625.900,0.897161
626.000,0.897900
626.100,0.898636
626.200,0.899360
626.300,0.900090
626.400,0.900818
626.500,0.901531
626.600,0.902256
626.700,0.902972
626.800,0.903674
626.900,0.904362
627.000,0.905019
627.100,0.905675
627.200,0.906318
627.300,0.906960
627.400,0.907606
627.500,0.908239
627.600,0.908876
627.700,0.909510
627.800,0.910134
627.900,0.910761
628.000,0.911384
628.100,0.912007
628.200,0.912608
628.300,0.913222
628.400,0.913837
628.500,0.914396
628.600,0.914938
628.700,0.915480
628.800,0.916013
628.900,0.916542
629.000,0.917074
629.100,0.917598
629.200,0.918119
629.300,0.918634
629.400,0.919154
629.500,0.919656
629.600,0.920170
629.700,0.920681
629.800,0.921178
629.900,0.921675
630.000,0.922173
630.100,0.922614
630.200,0.923031
630.300,0.923448
630.400,0.923870
630.500,0.924279
630.600,0.924683
630.700,0.925094
630.800,0.925497
630.900,0.925896
631.000,0.926291
631.100,0.926692
631.200,0.927074
631.300,0.927464
631.400,0.927857
631.500,0.928240
631.600,0.928619
631.700,0.928932
631.800,0.929239
631.900,0.929535
632.000,0.929835
632.100,0.930132
632.200,0.930430
632.300,0.930714
632.400,0.931007
632.500,0.931294
632.600,0.931576
632.700,0.931855
632.800,0.932136
632.900,0.932419
633.000,0.932690
633.100,0.932961
633.200,0.933235
633.300,0.933428
633.400,0.933623
633.500,0.933810
633.600,0.934000
633.700,0.934189
633.800,0.934377
633.900,0.934559
634.000,0.934733
634.100,0.934916
634.200,0.935097
634.300,0.935271
634.400,0.935446
634.500,0.935623
634.600,0.935786
634.700,0.935953
634.800,0.936117
634.900,0.936214
635.000,0.936304
635.100,0.936398
635.200,0.936489
635.300,0.936572
635.400,0.936659
635.500,0.936742
635.600,0.936828
635.700,0.936909
635.800,0.936986
635.900,0.937068
636.000,0.937148
636.100,0.937224
636.200,0.937301
636.300,0.937373
636.400,0.937434
636.500,0.937436
636.600,0.937440
636.700,0.937440
636.800,0.937435
636.900,0.937434
637.000,0.937429
637.100,0.937423
637.200,0.937420
637.300,0.937413
637.400,0.937407
637.500,0.937395
637.600,0.937386
637.700,0.937375
637.800,0.937361
637.900,0.937351
638.000,0.937322
638.100,0.937242
638.200,0.937157
638.300,0.937074
638.400,0.936995
638.500,0.936909
638.600,0.936823
638.700,0.936740
638.800,0.936653
638.900,0.936564
639.000,0.936480
639.100,0.936392
639.200,0.936301
639.300,0.936212
639.400,0.936122
639.500,0.936029
639.600,0.935925
639.700,0.935768
639.800,0.935614
639.900,0.935457
640.000,0.935298
640.100,0.935143
640.200,0.934987
640.300,0.934830
640.400,0.934673
640.500,0.934516
640.600,0.934357
640.700,0.934196
640.800,0.934037
640.900,0.933878
641.000,0.933714
641.100,0.933559
641.200,0.933375
641.300,0.933156
641.400,0.932939
641.500,0.932719
641.600,0.932499
641.700,0.932281
641.800,0.932061
641.900,0.931838
642.000,0.931623
642.100,0.931401
642.200,0.931179
642.300,0.930963
642.400,0.930740
642.500,0.930520
642.600,0.930300
642.700,0.930079
642.800,0.929840
642.900,0.929574
643.000,0.929308
643.100,0.929042
643.200,0.928777
643.300,0.928515
643.400,0.928250
643.500,0.927985
643.600,0.927721
643.700,0.927456
643.800,0.927192
643.900,0.926927
644.000,0.926666
644.100,0.926403
644.200,0.926138
644.300,0.925875
644.400,0.925601
644.500,0.925309
644.600,0.925018
644.700,0.924730
644.800,0.924440
644.900,0.924153
645.000,0.923866
645.100,0.923573
645.200,0.923288
645.300,0.923002
645.400,0.922714
645.500,0.922430
645.600,0.922146
645.700,0.921859
645.800,0.921572
645.900,0.921287
646.000,0.920994
646.100,0.920694
646.200,0.920395
646.300,0.920096
646.400,0.919796
646.500,0.919498
646.600,0.919201
646.700,0.918901
646.800,0.918604
646.900,0.918312
647.000,0.918017
647.100,0.917718
647.200,0.917425
647.300,0.917135
647.400,0.916843
647.500,0.916547
647.600,0.916254
647.700,0.915962
647.800,0.915669
647.900,0.915378
648.000,0.915087
648.100,0.914798
648.200,0.914505
648.300,0.914217
648.400,0.913929
648.500,0.913638
648.600,0.913351
648.700,0.913065
648.800,0.912780
648.900,0.912495
649.000,0.912211
649.100,0.911928
649.200,0.911653
649.300,0.911389
649.400,0.911125
649.500,0.910859
649.600,0.910597
649.700,0.910334
649.800,0.910071
649.900,0.909810
650.000,0.909549
650.100,0.909287
650.200,0.909028
650.300,0.908770
650.400,0.908505
650.500,0.908248
650.600,0.907991
650.700,0.907732
650.800,0.907508
650.900,0.907294
651.000,0.907078
651.100,0.906865
651.200,0.906653
651.300,0.906436
651.400,0.906225
651.500,0.906012
651.600,0.905802
651.700,0.905586
651.800,0.905376
651.900,0.905164
652.000,0.904951
652.100,0.904740
652.200,0.904531
652.300,0.904316
652.400,0.904165
652.500,0.904025
652.600,0.903885
652.700,0.903744
652.800,0.903604
652.900,0.903461
653.000,0.903322
653.100,0.903178
653.200,0.903038
653.300,0.902896
653.400,0.902754
653.500,0.902616
653.600,0.902471
653.700,0.902331
653.800,0.902187
653.900,0.902046
654.000,0.901985
654.100,0.901937
654.200,0.901888
654.300,0.901841
654.400,0.901792
654.500,0.901742
654.600,0.901695
654.700,0.901646
654.800,0.901595
654.900,0.901546
655.000,0.901495
655.100,0.901444
655.200,0.901392
655.300,0.901341
655.400,0.901288
655.500,0.901235
655.600,0.901287
655.700,0.901352
655.800,0.901414
655.900,0.901478
656.000,0.901536
656.100,0.901599
656.200,0.901658
656.300,0.901719
656.400,0.901778
656.500,0.901836
656.600,0.901897
656.700,0.901954
656.800,0.902014
656.900,0.902070
657.000,0.902129
657.100,0.902182
657.200,0.902365
657.300,0.902549
657.400,0.902728
657.500,0.902912
657.600,0.903094
657.700,0.903278
657.800,0.903457
657.900,0.903639
658.000,0.903823
658.100,0.904009
658.200,0.904192
658.300,0.904369
658.400,0.904552
658.500,0.904736
658.600,0.904919
658.700,0.905109
658.800,0.905408
658.900,0.905711
659.000,0.906010
659.100,0.906312
659.200,0.906615
659.300,0.906917
659.400,0.907219
659.500,0.907524
659.600,0.907828
659.700,0.908134
659.800,0.908442
659.900,0.908751
660.000,0.909059
660.100,0.909368
660.200,0.909674
660.300,0.909993
660.400,0.910401
660.500,0.910807
660.600,0.911215
660.700,0.911624
660.800,0.912037
660.900,0.912445
661.000,0.912861
661.100,0.913277
661.200,0.913695
661.300,0.914108
661.400,0.914524
661.500,0.914946
661.600,0.915365
661.700,0.915787
661.800,0.916207
661.900,0.916646
662.000,0.917129
662.100,0.917609
662.200,0.918094
662.300,0.918576
662.400,0.919063
662.500,0.919549
662.600,0.920041
662.700,0.920531
662.800,0.921028
662.900,0.921519
663.000,0.922010
663.100,0.922507
663.200,0.923005
663.300,0.923501
663.400,0.924003
663.500,0.924508
663.600,0.925024
663.700,0.925546
663.800,0.926070
663.900,0.926592
664.000,0.927116
664.100,0.927639
664.200,0.928168
664.300,0.928693
664.400,0.929221
664.500,0.929748
664.600,0.930281
664.700,0.930811
664.800,0.931343
664.900,0.931880
665.000,0.932414
665.100,0.932947
665.200,0.933462
665.300,0.933985
665.400,0.934508
665.500,0.935032
665.600,0.935555
665.700,0.936075
665.800,0.936601
665.900,0.937128
666.000,0.937653
666.100,0.938180
666.200,0.938705
666.300,0.939233
666.400,0.939761
666.500,0.940291
666.600,0.940821
666.700,0.941332
666.800,0.941822
666.900,0.942308
667.000,0.942800
667.100,0.943286
667.200,0.943777
667.300,0.944265
667.400,0.944756
667.500,0.945243
667.600,0.945736
667.700,0.946223
667.800,0.946717
667.900,0.947208
668.000,0.947697
668.100,0.948191
668.200,0.948680
668.300,0.949146
668.400,0.949591
668.500,0.950030
668.600,0.950470
668.700,0.950908
668.800,0.951348
668.900,0.951787
669.000,0.952231
669.100,0.952670
669.200,0.953108
669.300,0.953548
669.400,0.953987
669.500,0.954430
669.600,0.954869
669.700,0.955312
669.800,0.955750
669.900,0.956160
670.000,0.956541
670.100,0.956922
670.200,0.957308
670.300,0.957688
670.400,0.958074
670.500,0.958453
670.600,0.958834
670.700,0.959218
670.800,0.959597
670.900,0.959982
671.000,0.960362
671.100,0.960740
671.200,0.961124
671.300,0.961502
671.400,0.961881
671.500,0.962230
671.600,0.962554
671.700,0.962883
671.800,0.963207
671.900,0.963535
672.000,0.963858
672.100,0.964180
672.200,0.964508
672.300,0.964831
672.400,0.965157
672.500,0.965480
672.600,0.965801
672.700,0.966128
672.800,0.966450
672.900,0.966775
673.000,0.967097
673.100,0.967388
673.200,0.967658
673.300,0.967933
673.400,0.968203
673.500,0.968478
673.600,0.968753
673.700,0.969022
673.800,0.969296
673.900,0.969565
674.000,0.969839
674.100,0.970113
674.200,0.970380
674.300,0.970654
674.400,0.970923
674.500,0.971195
674.600,0.971468
674.700,0.971705
674.800,0.971932
674.900,0.972159
675.000,0.972390
675.100,0.972616
675.200,0.972843
675.300,0.973068
675.400,0.973299
675.500,0.973524
675.600,0.973750
675.700,0.973976
675.800,0.974205
675.900,0.974431
676.000,0.974655
676.100,0.974880
676.200,0.975110
676.300,0.975304
676.400,0.975493
676.500,0.975681
676.600,0.975869
676.700,0.976058
676.800,0.976245
676.900,0.976433
677.000,0.976621
677.100,0.976808
677.200,0.976996
677.300,0.977183
677.400,0.977370
677.500,0.977558
677.600,0.977745
677.700,0.977937
677.800,0.978124
677.900,0.978280
678.000,0.978436
678.100,0.978591
678.200,0.978747
678.300,0.978903
678.400,0.979058
678.500,0.979213
678.600,0.979369
678.700,0.979523
678.800,0.979679
678.900,0.979834
679.000,0.979989
679.100,0.980144
679.200,0.980300
679.300,0.980455
679.400,0.980609
679.500,0.980739
679.600,0.980869
679.700,0.980998
679.800,0.981127
679.900,0.981255
680.000,0.981384
680.100,0.981513
680.200,0.981641
680.300,0.981771
680.400,0.981900
680.500,0.982028
680.600,0.982156
680.700,0.982284
680.800,0.982413
680.900,0.982541
681.000,0.982669
681.100,0.982777
681.200,0.982880
681.300,0.982987
681.400,0.983094
681.500,0.983201
681.600,0.983309
681.700,0.983411
681.800,0.983517
681.900,0.983624
682.000,0.983732
682.100,0.983834
682.200,0.983941
682.300,0.984048
682.400,0.984154
682.500,0.984262
682.600,0.984363
682.700,0.984448
682.800,0.984539
682.900,0.984626
683.000,0.984712
683.100,0.984802
683.200,0.984888
683.300,0.984979
683.400,0.985064
683.500,0.985149
683.600,0.985240
683.700,0.985327
683.800,0.985417
683.900,0.985502
684.000,0.985587
684.100,0.985679
684.200,0.985759
684.300,0.985833
684.400,0.985902
684.500,0.985977
684.600,0.986048
684.700,0.986122
684.800,0.986191
684.900,0.986265
685.000,0.986335
685.100,0.986404
685.200,0.986478
685.300,0.986547
685.400,0.986623
685.500,0.986696
685.600,0.986770
685.700,0.986839
685.800,0.986909
685.900,0.986967
686.000,0.987025
686.100,0.987083
686.200,0.987142
686.300,0.987201
686.400,0.987260
686.500,0.987317
686.600,0.987376
686.700,0.987434
686.800,0.987492
686.900,0.987550
687.000,0.987607
687.100,0.987668
687.200,0.987726
687.300,0.987783
687.400,0.987836
687.500,0.987884
687.600,0.987931
687.700,0.987977
687.800,0.988024
687.900,0.988072
688.000,0.988120
688.100,0.988167
688.200,0.988214
688.300,0.988262
688.400,0.988308
688.500,0.988355
688.600,0.988402
688.700,0.988450
688.800,0.988498
688.900,0.988544
689.000,0.988585
689.100,0.988626
689.200,0.988663
689.300,0.988699
689.400,0.988735
689.500,0.988770
689.600,0.988812
689.700,0.988849
689.800,0.988884
689.900,0.988920
690.000,0.988962
690.100,0.988998
690.200,0.989033
690.300,0.989068
690.400,0.989110
690.500,0.989147
690.600,0.989177
690.700,0.989207
690.800,0.989236
690.900,0.989267
691.000,0.989297
691.100,0.989327
691.200,0.989356
691.300,0.989382
691.400,0.989413
691.500,0.989442
691.600,0.989472
691.700,0.989502
691.800,0.989532
691.900,0.989555
692.000,0.989585
692.100,0.989615
692.200,0.989641
692.300,0.989664
692.400,0.989688
692.500,0.989706
692.600,0.989731
692.700,0.989749
692.800,0.989773
692.900,0.989796
693.000,0.989815
693.100,0.989840
693.200,0.989858
693.300,0.989881
693.400,0.989906
693.500,0.989924
693.600,0.989947
693.700,0.989964
693.800,0.989982
693.900,0.990003
694.000,0.990020
694.100,0.990032
694.200,0.990050
694.300,0.990062
694.400,0.990080
694.500,0.990092
694.600,0.990109
694.700,0.990128
694.800,0.990141
694.900,0.990158
695.000,0.990169
695.100,0.990188
695.200,0.990205
695.300,0.990216
695.400,0.990227
695.500,0.990239
695.600,0.990253
695.700,0.990258
695.800,0.990270
695.900,0.990280
696.000,0.990287
696.100,0.990298
696.200,0.990309
696.300,0.990320
696.400,0.990326
696.500,0.990338
696.600,0.990349
696.700,0.990353
696.800,0.990364
696.900,0.990376
697.000,0.990381
697.100,0.990386
697.200,0.990390
697.300,0.990398
697.400,0.990403
697.500,0.990407
697.600,0.990412
697.700,0.990416
697.800,0.990422
697.900,0.990426
698.000,0.990430
698.100,0.990428
698.200,0.990435
698.300,0.990439
698.400,0.990443
698.500,0.990447
698.600,0.990453
698.700,0.990450
698.800,0.990448
698.900,0.990446
699.000,0.990452
699.100,0.990451
699.200,0.990448
699.300,0.990452
699.400,0.990449
699.500,0.990448
699.600,0.990445
699.700,0.990448
699.800,0.990445
699.900,0.990446
700.000,0.990443
700.100,0.990446
700.200,0.990436
700.300,0.990433
700.400,0.990432
700.500,0.990429
700.600,0.990425
700.700,0.990417
700.800,0.990416
700.900,0.990412
701.000,0.990408
701.100,0.990398
701.200,0.990395
701.300,0.990395
701.400,0.990391
701.500,0.990387
701.600,0.990378
701.700,0.990376
701.800,0.990366
701.900,0.990364
702.000,0.990353
702.100,0.990344
702.200,0.990336
702.300,0.990331
702.400,0.990320
702.500,0.990311
702.600,0.990302
702.700,0.990298
702.800,0.990288
702.900,0.990277
703.000,0.990274
703.100,0.990265
703.200,0.990253
703.300,0.990241
703.400,0.990232
703.500,0.990223
703.600,0.990213
703.700,0.990202
703.800,0.990190
703.900,0.990182
704.000,0.990170
704.100,0.990151
704.200,0.990141
704.300,0.990129
704.400,0.990119
704.500,0.990109
704.600,0.990096
704.700,0.990084
704.800,0.990075
704.900,0.990055
705.000,0.990043
705.100,0.990025
705.200,0.990016
705.300,0.989995
705.400,0.989985
705.500,0.989964
705.600,0.989951
705.700,0.989943
705.800,0.989922
705.900,0.989909
706.000,0.989891
706.100,0.989879
706.200,0.989858
706.300,0.989847
706.400,0.989825
706.500,0.989812
706.600,0.989795
706.700,0.989774
706.800,0.989753
706.900,0.989734
707.000,0.989723
707.100,0.989702
707.200,0.989683
707.300,0.989660
707.400,0.989639
707.500,0.989630
707.600,0.989607
707.700,0.989585
707.800,0.989564
707.900,0.989545
708.000,0.989533
708.100,0.989510
708.200,0.989480
708.300,0.989459
708.400,0.989440
708.500,0.989417
708.600,0.989396
708.700,0.989374
708.800,0.989352
708.900,0.989332
709.000,0.989309
709.100,0.989277
709.200,0.989257
709.300,0.989235
709.400,0.989211
709.500,0.989191
709.600,0.989166
709.700,0.989144
709.800,0.989116
709.900,0.989091
710.000,0.989068
710.100,0.989038
710.200,0.989016
710.300,0.988991
710.400,0.988970
710.500,0.988937
710.600,0.988912
710.700,0.988893
710.800,0.988859
710.900,0.988835
711.000,0.988812
711.100,0.988781
711.200,0.988755
711.300,0.988733
711.400,0.988699
711.500,0.988673
711.600,0.988645
711.700,0.988611
711.800,0.988584
711.900,0.988553
712.000,0.988530
712.100,0.988495
712.200,0.988471
712.300,0.988435
712.400,0.988409
712.500,0.988379
712.600,0.988344
712.700,0.988320
712.800,0.988283
712.900,0.988259
713.000,0.988226
713.100,0.988190
713.200,0.988154
713.300,0.988129
713.400,0.988096
713.500,0.988060
713.600,0.988033
713.700,0.987997
713.800,0.987964
713.900,0.987928
714.000,0.987900
714.100,0.987862
714.200,0.987828
714.300,0.987794
714.400,0.987763
714.500,0.987729
714.600,0.987691
714.700,0.987652
714.800,0.987621
714.900,0.987583
715.000,0.987544
715.100,0.987517
715.200,0.987482
715.300,0.987443
715.400,0.987407
715.500,0.987367
715.600,0.987327
715.700,0.987295
715.800,0.987254
715.900,0.987223
716.000,0.987186
716.100,0.987150
716.200,0.987109
716.300,0.987072
716.400,0.987031
716.500,0.986981
716.600,0.986947
716.700,0.986907
716.800,0.986865
716.900,0.986826
717.000,0.986784
717.100,0.986746
717.200,0.986708
717.300,0.986665
717.400,0.986626
717.500,0.986587
717.600,0.986544
717.700,0.986505
717.800,0.986454
717.900,0.986409
718.000,0.986375
718.100,0.986330
718.200,0.986288
718.300,0.986247
718.400,0.986194
718.500,0.986153
718.600,0.986112
718.700,0.986068
718.800,0.986023
718.900,0.985977
719.000,0.985931
719.100,0.985886
719.200,0.985844
719.300,0.985799
719.400,0.985748
719.500,0.985706
719.600,0.985659
719.700,0.985603
719.800,0.985561
719.900,0.985518
720.000,0.985461
720.100,0.985417
720.200,0.985370
720.300,0.985327
720.400,0.985273
720.500,0.985226
720.600,0.985177
720.700,0.985122
720.800,0.985078
720.900,0.985030
721.000,0.984975
721.100,0.984926
721.200,0.984876
721.300,0.984826
721.400,0.984776
721.500,0.984716
721.600,0.984671
721.700,0.984625
721.800,0.984569
721.900,0.984518
722.000,0.984467
722.100,0.984410
722.200,0.984364
722.300,0.984301
722.400,0.984254
722.500,0.984203
722.600,0.984139
722.700,0.984097
722.800,0.984035
722.900,0.983982
723.000,0.983923
723.100,0.983876
723.200,0.983812
723.300,0.983763
723.400,0.983698
723.500,0.983643
723.600,0.983589
723.700,0.983534
723.800,0.983469
723.900,0.983418
724.000,0.983352
724.100,0.983292
724.200,0.983236
724.300,0.983170
724.400,0.983114
724.500,0.983046
724.600,0.982996
724.700,0.982928
724.800,0.982871
724.900,0.982802
725.000,0.982740
725.100,0.982682
725.200,0.982613
725.300,0.982553
725.400,0.982485
725.500,0.982432
725.600,0.982360
725.700,0.982291
725.800,0.982232
725.900,0.982161
726.000,0.982107
726.100,0.982034
726.200,0.981962
726.300,0.981902
726.400,0.981829
726.500,0.981762
726.600,0.981702
726.700,0.981629
726.800,0.981572
726.900,0.981505
727.000,0.981429
727.100,0.981368
727.200,0.981293
727.300,0.981229
727.400,0.981162
727.500,0.981085
727.600,0.981021
727.700,0.980946
727.800,0.980868
727.900,0.980812
728.000,0.980734
728.100,0.980668
728.200,0.980591
728.300,0.980512
728.400,0.980453
728.500,0.980375
728.600,0.980296
728.700,0.980227
728.800,0.980148
728.900,0.980087
729.000,0.980008
729.100,0.979928
729.200,0.979859
729.300,0.979784
729.400,0.979705
729.500,0.979633
729.600,0.979551
729.700,0.979481
729.800,0.979405
729.900,0.979322
730.000,0.979252
730.100,0.979165
730.200,0.979083
730.300,0.979016
730.400,0.978932
730.500,0.978860
730.600,0.978773
730.700,0.978689
730.800,0.978623
730.900,0.978537
731.000,0.978448
731.100,0.978373
731.200,0.978285
731.300,0.978205
731.400,0.978131
731.500,0.978042
731.600,0.977952
731.700,0.977875
731.800,0.977793
731.900,0.977717
732.000,0.977626
732.100,0.977534
732.200,0.977465
732.300,0.977378
732.400,0.977288
732.500,0.977209
732.600,0.977114
732.700,0.977030
732.800,0.976949
732.900,0.976855
733.000,0.976761
733.100,0.976679
733.200,0.976591
733.300,0.976496
733.400,0.976414
733.500,0.976317
733.600,0.976219
733.700,0.976145
733.800,0.976048
733.900,0.975950
734.000,0.975863
734.100,0.975766
734.200,0.975676
734.300,0.975589
734.400,0.975490
734.500,0.975388
734.600,0.975302
734.700,0.975210
734.800,0.975106
734.900,0.975017
735.000,0.974916
735.100,0.974810
735.200,0.974732
735.300,0.974628
735.400,0.974523
735.500,0.974433
735.600,0.974337
735.700,0.974231
735.800,0.974140
735.900,0.974030
736.000,0.973924
736.100,0.973840
736.200,0.973731
736.300,0.973623
736.400,0.973529
736.500,0.973419
736.600,0.973318
736.700,0.973222
736.800,0.973110
736.900,0.972999
737.000,0.972902
737.100,0.972800
737.200,0.972689
737.300,0.972589
737.400,0.972475
737.500,0.972361
737.600,0.972256
737.700,0.972156
737.800,0.972039
737.900,0.971929
738.000,0.971827
738.100,0.971721
738.200,0.971601
738.300,0.971500
738.400,0.971381
738.500,0.971261
738.600,0.971154
738.700,0.971047
738.800,0.970925
738.900,0.970805
739.000,0.970696
739.100,0.970585
739.200,0.970463
739.300,0.970352
739.400,0.970229
739.500,0.970105
739.600,0.970005
739.700,0.969878
739.800,0.969753
739.900,0.969624
740.000,0.969511
740.100,0.969395
740.200,0.969267
740.300,0.969155
740.400,0.969023
740.500,0.968891
740.600,0.968774
740.700,0.968660
740.800,0.968525
740.900,0.968393
741.000,0.968277
741.100,0.968154
741.200,0.968019
741.300,0.967882
741.400,0.967763
741.500,0.967624
741.600,0.967501
741.700,0.967380
741.800,0.967239
741.900,0.967103
742.000,0.966963
742.100,0.966852
742.200,0.966713
742.300,0.966568
742.400,0.966440
742.500,0.966299
742.600,0.966170
742.700,0.966026
742.800,0.965898
742.900,0.965751
743.000,0.965604
743.100,0.965486
743.200,0.965341
743.300,0.965192
743.400,0.965054
743.500,0.964919
743.600,0.964783
743.700,0.964633
743.800,0.964478
743.900,0.964345
744.000,0.964190
744.100,0.964051
744.200,0.963913
744.300,0.963756
744.400,0.963601
744.500,0.963442
744.600,0.963318
744.700,0.963157
744.800,0.963002
744.900,0.962838
745.000,0.962696
745.100,0.962553
745.200,0.962389
745.300,0.962226
745.400,0.962079
745.500,0.961916
745.600,0.961768
745.700,0.961597
745.800,0.961453
745.900,0.961282
746.000,0.961111
746.100,0.960963
746.200,0.960809
746.300,0.960635
746.400,0.960467
746.500,0.960302
746.600,0.960170
746.700,0.959989
746.800,0.959818
746.900,0.959641
747.000,0.959481
747.100,0.959322
747.200,0.959158
747.300,0.958977
747.400,0.958814
747.500,0.958632
747.600,0.958472
747.700,0.958285
747.800,0.958136
747.900,0.957951
748.000,0.957764
748.100,0.957597
748.200,0.957433
748.300,0.957242
748.400,0.957049
748.500,0.956873
748.600,0.956722
748.700,0.956532
748.800,0.956338
748.900,0.956143
749.000,0.955967
749.100,0.955791
749.200,0.955608
749.300,0.955408
749.400,0.955211
749.500,0.955027
749.600,0.954850
749.700,0.954650
749.800,0.954458
749.900,0.954272
750.000,0.954069
750.100,0.953884
750.200,0.953674
750.300,0.953490
750.400,0.953282
750.500,0.953082
750.600,0.952895
750.700,0.952684
750.800,0.952494
750.900,0.952277
751.000,0.952062
751.100,0.951846
751.200,0.951686
751.300,0.951467
751.400,0.951248
751.500,0.951027
751.600,0.950802
751.700,0.950627
751.800,0.950416
751.900,0.950186
752.000,0.949960
752.100,0.949755
752.200,0.949552
752.300,0.949317
752.400,0.949085
752.500,0.948872
752.600,0.948657
752.700,0.948448
752.800,0.948211
752.900,0.947977
753.000,0.947739
753.100,0.947522
753.200,0.947321
753.300,0.947079
753.400,0.946834
753.500,0.946612
753.600,0.946370
753.700,0.946145
753.800,0.945914
753.900,0.945662
754.000,0.945435
754.100,0.945180
754.200,0.944953
754.300,0.944701
754.400,0.944438
754.500,0.944228
754.600,0.943967
754.700,0.943698
754.800,0.943470
754.900,0.943203
755.000,0.942972
755.100,0.942698
755.200,0.942449
755.300,0.942207
755.400,0.941939
755.500,0.941690
755.600,0.941413
755.700,0.941140
755.800,0.940907
755.900,0.940632
756.000,0.940355
756.100,0.940097
756.200,0.939817
756.300,0.939561
756.400,0.939278
756.500,0.939009
756.600,0.938742
756.700,0.938454
756.800,0.938191
756.900,0.937899
757.000,0.937606
757.100,0.937337
757.200,0.937051
757.300,0.936780
757.400,0.936486
757.500,0.936178
757.600,0.935875
757.700,0.935603
757.800,0.935305
757.900,0.935026
758.000,0.934721
758.100,0.934409
758.200,0.934117
758.300,0.933799
758.400,0.933518
758.500,0.933221
758.600,0.932893
758.700,0.932575
758.800,0.932279
758.900,0.931975
759.000,0.931652
759.100,0.931320
759.200,0.931010
759.300,0.930668
759.400,0.930400
759.500,0.930067
759.600,0.929719
759.700,0.929382
759.800,0.929054
759.900,0.928713
760.000,0.928434
760.100,0.928083
760.200,0.927735
760.300,0.927372
760.400,0.927011
760.500,0.926712
760.600,0.926387
760.700,0.926016
760.800,0.925664
760.900,0.925295
761.000,0.924967
761.100,0.924600
761.200,0.924275
761.300,0.923904
761.400,0.923516
761.500,0.923185
761.600,0.922807
761.700,0.922411
761.800,0.922081
761.900,0.921688
762.000,0.921301
762.100,0.920950
762.200,0.920550
762.300,0.920165
762.400,0.919752
762.500,0.919406
762.600,0.919053
762.700,0.918650
762.800,0.918235
762.900,0.917818
763.000,0.917405
763.100,0.917077
763.200,0.916672
763.300,0.916252
763.400,0.915830
763.500,0.915396
763.600,0.915022
763.700,0.914591
763.800,0.914206
763.900,0.913773
764.000,0.913334
764.100,0.912903
764.200,0.912495
764.300,0.912059
764.400,0.911609
764.500,0.911205
764.600,0.910752
764.700,0.910349
764.800,0.909899
764.900,0.909425
765.000,0.908969
765.100,0.908490
765.200,0.908136
765.300,0.907660
765.400,0.907192
765.500,0.906710
765.600,0.906217
765.700,0.905728
765.800,0.905332
765.900,0.904865
766.000,0.904379
766.100,0.903868
766.200,0.903375
766.300,0.902919
766.400,0.902408
766.500,0.901930
766.600,0.901402
766.700,0.900932
766.800,0.900461
766.900,0.899946
767.000,0.899404
767.100,0.898882
767.200,0.898381
767.300,0.897842
767.400,0.897362
767.500,0.896856
767.600,0.896317
767.700,0.895749
767.800,0.895228
767.900,0.894747
768.000,0.894183
768.100,0.893611
768.200,0.893050
768.300,0.892526
768.400,0.892004
768.500,0.891458
768.600,0.890882
768.700,0.890290
768.800,0.889680
768.900,0.889092
769.000,0.888574
769.100,0.887967
769.200,0.887437
769.300,0.886833
769.400,0.886198
769.500,0.885663
769.600,0.885047
769.700,0.884427
769.800,0.883818
769.900,0.883173
770.000,0.882620
770.100,0.882015
770.200,0.881373
770.300,0.880727
770.400,0.880077
770.500,0.879438
770.600,0.878862
770.700,0.878212
770.800,0.877530
770.900,0.876840
771.000,0.876208
771.100,0.875613
771.200,0.874942
771.300,0.874251
771.400,0.873554
771.500,0.872839
771.600,0.872147
771.700,0.871526
771.800,0.870841
771.900,0.870105
772.000,0.869428
772.100,0.868716
772.200,0.868059
772.300,0.867318
772.400,0.866587
772.500,0.865867
772.600,0.865095
772.700,0.864430
772.800,0.863683
772.900,0.862895
773.000,0.862182
773.100,0.861399
773.200,0.860642
773.300,0.859933
773.400,0.859133
773.500,0.858348
773.600,0.857536
773.700,0.856719
773.800,0.856034
773.900,0.855205
774.000,0.854375
774.100,0.853604
774.200,0.852757
774.300,0.851920
774.400,0.851172
774.500,0.850329
774.600,0.849458
774.700,0.848615
774.800,0.847731
774.900,0.846937
775.000,0.846082
775.100,0.845214
775.200,0.844305
775.300,0.843448
775.400,0.842580
775.500,0.841770
775.600,0.840840
775.700,0.839916
775.800,0.839003
775.900,0.838027
776.000,0.837212
776.100,0.836262
776.200,0.835301
776.300,0.834342
776.400,0.833370
776.500,0.832574
776.600,0.831595
776.700,0.830602
776.800,0.829608
776.900,0.828596
777.000,0.827608
777.100,0.826699
777.200,0.825626
777.300,0.824655
777.400,0.823588
777.500,0.822519
777.600,0.821637
777.700,0.820575
777.800,0.819477
777.900,0.818370
778.000,0.817384
778.100,0.816260
778.200,0.815305
778.300,0.814195
778.400,0.813110
778.500,0.811959
778.600,0.810817
778.700,0.809867
778.800,0.808684
778.900,0.807523
779.000,0.806354
779.100,0.805185
779.200,0.803997
779.300,0.802954
779.400,0.801724
779.500,0.800609
779.600,0.799386
779.700,0.798154
779.800,0.797087
779.900,0.795837
780.000,0.794569
780.100,0.793273
780.200,0.792063
780.300,0.790766
780.400,0.789614
780.500,0.788333
780.600,0.787023
780.700,0.785695
780.800,0.784319
780.900,0.783224
781.000,0.781837
781.100,0.780460
781.200,0.779080
781.300,0.777803
781.400,0.776394
781.500,0.775172
781.600,0.773780
781.700,0.772363
781.800,0.770950
781.900,0.769455
782.000,0.768034
782.100,0.766787
782.200,0.765299
782.300,0.763799
782.400,0.762335
782.500,0.760802
782.600,0.759475
782.700,0.757929
782.800,0.756452
782.900,0.754848
783.000,0.753299
783.100,0.751709
783.200,0.750353
783.300,0.748735
783.400,0.747103
783.500,0.745543
783.600,0.743886
783.700,0.742519
783.800,0.740873
783.900,0.739229
784.000,0.737474
784.100,0.735790
784.200,0.734105
784.300,0.732594
784.400,0.730871
784.500,0.729097
784.600,0.727360
784.700,0.725595
784.800,0.723987
784.900,0.722197
785.000,0.720445
785.100,0.718626
785.200,0.716714
785.300,0.714919
785.400,0.713317
785.500,0.711361
785.600,0.709472
785.700,0.707621
785.800,0.705661
785.900,0.703685
786.000,0.702007
786.100,0.700056
786.200,0.698035
786.300,0.696041
786.400,0.694099
786.500,0.692358
786.600,0.690275
786.700,0.688221
786.800,0.686244
786.900,0.684158
787.000,0.682056
787.100,0.680141
787.200,0.678063
787.300,0.675913
787.400,0.673700
787.500,0.671524
787.600,0.669632
787.700,0.667368
787.800,0.665198
787.900,0.662956
788.000,0.660640
788.100,0.658355
788.200,0.656376
788.300,0.654115
788.400,0.651795
788.500,0.649442
788.600,0.647076
788.700,0.644635
788.800,0.642566
788.900,0.640210
789.000,0.637774
789.100,0.635313
789.200,0.632780
789.300,0.630579
789.400,0.628194
789.500,0.625661
789.600,0.623053
789.700,0.620613
789.800,0.618023
789.900,0.615781
790.000,0.613114
790.100,0.610527
790.200,0.607861
790.300,0.605194
790.400,0.602489
790.500,0.600208
790.600,0.597484
790.700,0.594722
790.800,0.592000
790.900,0.589216
791.000,0.586730
791.100,0.583970
791.200,0.581108
791.300,0.578309
791.400,0.575407
791.500,0.572485
791.600,0.570039
791.700,0.567079
791.800,0.564183
791.900,0.561176
792.000,0.558239
792.100,0.555196
792.200,0.552587
792.300,0.549565
792.400,0.546462
792.500,0.543358
792.600,0.540213
792.700,0.537646
792.800,0.534483
792.900,0.531277
793.000,0.528203
793.100,0.524955
793.200,0.521708
793.300,0.518886
793.400,0.515732
793.500,0.512331
793.600,0.509076
793.700,0.505704
793.800,0.502395
793.900,0.499467
794.000,0.496133
794.100,0.492665
794.200,0.489290
794.300,0.485896
794.400,0.482806
794.500,0.479433
794.600,0.475879
794.700,0.472330
794.800,0.468918
794.900,0.465363
795.000,0.462351
795.100,0.458725
795.200,0.455111
795.300,0.451525
795.400,0.447840
795.500,0.444109
795.600,0.441059
795.700,0.437319
795.800,0.433532
795.900,0.429922
796.000,0.426182
796.100,0.422890
796.200,0.419143
796.300,0.415350
796.400,0.411568
796.500,0.407657
796.600,0.403841
796.700,0.400632
796.800,0.396672
796.900,0.392810
797.000,0.388845
797.100,0.385005
797.200,0.380981
797.300,0.377549
797.400,0.373756
797.500,0.369806
797.600,0.365636
797.700,0.361658
797.800,0.357718
797.900,0.354310
798.000,0.350177
798.100,0.346151
798.200,0.342163
798.300,0.338024
798.400,0.334445
798.500,0.330519
798.600,0.326350
798.700,0.322263
798.800,0.318045
798.900,0.313896
799.000,0.310489
799.100,0.306371
799.200,0.302155
799.300,0.298069
799.400,0.294029
799.500,0.289796
799.600,0.286309
799.700,0.282037
799.800,0.277982
799.900,0.273736
800.000,0.269622
800.100,0.265465
800.200,0.261930
800.300,0.257774
800.400,0.253657
800.500,0.249411
800.600,0.245357
800.700,0.241246
800.800,0.237626
800.900,0.233486
801.000,0.229449
801.100,0.225264
801.200,0.221143
801.300,0.217643
801.400,0.213634
801.500,0.209480
801.600,0.205395
801.700,0.201418
801.800,0.197297
801.900,0.193852
802.000,0.189817
802.100,0.185802
802.200,0.181825
802.300,0.177838
802.400,0.173874
802.500,0.170514
802.600,0.166605
802.700,0.162698
802.800,0.158808
802.900,0.154963
803.000,0.151209
803.100,0.147876
803.200,0.144168
803.300,0.140418
803.400,0.136593
803.500,0.132967
803.600,0.129285
803.700,0.126115
803.800,0.122576
803.900,0.118985
804.000,0.115540
804.100,0.112018
804.200,0.109053
804.300,0.105681
804.400,0.102179
804.500,0.098883
804.600,0.095549
804.700,0.092256
804.800,0.089595
804.900,0.086381
805.000,0.083286
805.100,0.080162
805.200,0.077018
805.300,0.074061
805.400,0.071616
805.500,0.068742
805.600,0.065790
805.700,0.063021
805.800,0.060237
805.900,0.057652
806.000,0.055316
806.100,0.052748
806.200,0.050173
806.300,0.047601
806.400,0.045275
806.500,0.042874
806.600,0.040939
806.700,0.038599
806.800,0.036490
806.900,0.034322
807.000,0.032266
807.100,0.030179
807.200,0.028603
807.300,0.026678
807.400,0.024863
807.500,0.023084
807.600,0.021404
807.700,0.019744
807.800,0.018474
807.900,0.016905
808.000,0.015474
808.100,0.014118
808.200,0.012820
808.300,0.011534
808.400,0.010587
808.500,0.009457
808.600,0.008434
808.700,0.007479
808.800,0.006563
808.900,0.005888
809.000,0.005088
809.100,0.004416
809.200,0.003776
809.300,0.003223
809.400,0.002734
809.500,0.002383
809.600,0.002042
809.700,0.001754
809.800,0.001550
809.900,0.001413
810.000,0.001346
810.100,0.001344
810.200,0.001408
810.300,0.001546
810.400,0.001745
810.500,0.002018
810.600,0.002380
810.700,0.002713
810.800,0.003198
810.900,0.003749
811.000,0.004356
811.100,0.005052
811.200,0.005776
811.300,0.006499
811.400,0.007372
811.500,0.008306
811.600,0.009312
811.700,0.010374
811.800,0.011503
811.900,0.012510
812.000,0.013728
812.100,0.015108
812.200,0.016444
812.300,0.017885
812.400,0.019378
812.500,0.020678
812.600,0.022291
812.700,0.023952
812.800,0.025684
812.900,0.027457
813.000,0.029348
813.100,0.030889
813.200,0.032837
813.300,0.034873
813.400,0.036866
813.500,0.038976
813.600,0.041174
813.700,0.043037
813.800,0.045224
813.900,0.047530
814.000,0.049923
814.100,0.052244
814.200,0.054694
814.300,0.056777
814.400,0.059369
814.500,0.061867
814.600,0.064555
814.700,0.067137
814.800,0.069820
814.900,0.072131
815.000,0.074894
815.100,0.077625
815.200,0.080532
815.300,0.083336
815.400,0.086246
815.500,0.088741
815.600,0.091709
815.700,0.094737
815.800,0.097777
815.900,0.100842
816.000,0.103966
816.100,0.106519
816.200,0.109674
816.300,0.112929
816.400,0.116059
816.500,0.119214
816.600,0.122578
816.700,0.125331
816.800,0.128554
816.900,0.131798
817.000,0.135254
817.100,0.138616
817.200,0.141922
817.300,0.144809
817.400,0.148118
817.500,0.151638
817.600,0.155010
817.700,0.158509
817.800,0.161912
817.900,0.164934
818.000,0.168363
818.100,0.171916
818.200,0.175449
818.300,0.178913
818.400,0.182388
818.500,0.185351
818.600,0.189038
818.700,0.192538
818.800,0.196046
818.900,0.199561
819.000,0.203163
819.100,0.206201
819.200,0.209848
819.300,0.213385
819.400,0.217007
819.500,0.220508
819.600,0.224054
819.700,0.227135
819.800,0.230767
819.900,0.234411
820.000,0.237963
820.100,0.241516
820.200,0.245150
820.300,0.248232
820.400,0.251783
820.500,0.255413
820.600,0.258911
820.700,0.262546
820.800,0.266086
820.900,0.269237
821.000,0.272770
821.100,0.276299
821.200,0.279824
821.300,0.283423
821.400,0.286937
821.500,0.289865
821.600,0.293367
821.700,0.296980
821.800,0.300468
821.900,0.303949
822.000,0.307423
822.100,0.310394
822.200,0.313852
822.300,0.317302
822.400,0.320743
822.500,0.324253
822.600,0.327788
822.700,0.330635
822.800,0.333982
822.900,0.337453
823.000,0.340836
823.100,0.344296
823.200,0.347734
823.300,0.350529
823.400,0.353869
823.500,0.357198
823.600,0.360591
823.700,0.363896
823.800,0.367189
823.900,0.370410
824.000,0.373210
824.100,0.376467
824.200,0.379712
824.300,0.382944
824.400,0.386235
824.500,0.389441
824.600,0.392102
824.700,0.395283
824.800,0.398522
824.900,0.401613
825.000,0.404752
825.100,0.407878
825.200,0.410438
825.300,0.413538
825.400,0.416624
825.500,0.419764
825.600,0.422821
825.700,0.425863
825.800,0.428386
825.900,0.431470
826.000,0.434408
826.100,0.437394
826.200,0.440365
826.300,0.443388
826.400,0.445762
826.500,0.448691
826.600,0.451508
826.700,0.454473
826.800,0.457358
826.900,0.460228
827.000,0.462605
827.100,0.465447
827.200,0.468274
827.300,0.471086
827.400,0.473882
827.500,0.476726
827.600,0.478937
827.700,0.481691
827.800,0.484365
827.900,0.487089
828.000,0.489572
828.100,0.492267
828.200,0.494497
828.300,0.497100
828.400,0.499752
828.500,0.502237
828.600,0.504859
828.700,0.507466
828.800,0.509995
828.900,0.512140
829.000,0.514555
829.100,0.517039
829.200,0.519511
829.300,0.522033
829.400,0.524539
829.500,0.526550
829.600,0.528946
829.700,0.531349
829.800,0.533799
829.900,0.536236
830.000,0.538595
830.100,0.540453
830.200,0.542786
830.300,0.545168
830.400,0.547536
830.500,0.549827
830.600,0.552087
830.700,0.553949
830.800,0.556263
830.900,0.558485
831.000,0.560709
831.100,0.562981
831.200,0.565102
831.300,0.566909
831.400,0.569143
831.500,0.571226
831.600,0.573433
831.700,0.575565
831.800,0.577671
831.900,0.579415
832.000,0.581509
832.100,0.583580
832.200,0.585648
832.300,0.587765
832.400,0.589681
832.500,0.591772
832.600,0.593499
832.700,0.595436
832.800,0.597490
832.900,0.599472
833.000,0.601379
833.100,0.603396
833.200,0.605001
833.300,0.606928
833.400,0.608850
833.500,0.610767
833.600,0.612725
833.700,0.614545
833.800,0.616151
833.900,0.617898
834.000,0.619810
834.100,0.621710
834.200,0.623475
834.300,0.625301
834.400,0.626791
834.500,0.628584
834.600,0.630427
834.700,0.632090
834.800,0.633911
834.900,0.635663
835.000,0.637400
835.100,0.638836
835.200,0.640496
835.300,0.642263
835.400,0.643962
835.500,0.645602
835.600,0.647279
835.700,0.648651
835.800,0.650366
835.900,0.651910
836.000,0.653604
836.100,0.655174
836.200,0.656847
836.300,0.658125
836.400,0.659724
836.500,0.661312
836.600,0.662846
836.700,0.664470
836.800,0.666028
836.900,0.667296
837.000,0.668837
837.100,0.670367
837.200,0.671847
837.300,0.673360
837.400,0.674862
837.500,0.676356
837.600,0.677536
837.700,0.679013
837.800,0.680533
837.900,0.681899
838.000,0.683400
838.100,0.684789
838.200,0.685978
838.300,0.687404
838.400,0.688818
838.500,0.690187
838.600,0.691583
838.700,0.692974
838.800,0.694070
838.900,0.695445
839.000,0.696860
839.100,0.698129
839.200,0.699528
839.300,0.700818
839.400,0.701926
839.500,0.703253
839.600,0.704568
839.700,0.705843
839.800,0.707142
839.900,0.708401
840.000,0.709734
840.100,0.710736
840.200,0.711974
840.300,0.713235
840.400,0.714458
840.500,0.715709
840.600,0.716947
840.700,0.717928
840.800,0.719152
840.900,0.720340
841.000,0.721555
841.100,0.722757
841.200,0.723924
841.300,0.724857
841.400,0.726053
841.500,0.727185
841.600,0.728359
841.700,0.729534
841.800,0.730646
841.900,0.731808
842.000,0.732702
842.100,0.733842
842.200,0.734985
842.300,0.736064
842.400,0.737153
842.500,0.738260
842.600,0.739170
842.700,0.740240
842.800,0.741329
842.900,0.742387
843.000,0.743486
843.100,0.744532
843.200,0.745410
843.300,0.746467
843.400,0.747496
843.500,0.748503
843.600,0.749557
843.700,0.750597
843.800,0.751557
843.900,0.752402
844.000,0.753388
844.100,0.754405
844.200,0.755417
844.300,0.756386
844.400,0.757386
844.500,0.758130
844.600,0.759155
844.700,0.760067
844.800,0.761045
844.900,0.761990
845.000,0.762949
845.100,0.763711
845.200,0.764625
845.300,0.765549
845.400,0.766530
845.500,0.767401
845.600,0.768337
845.700,0.769199
845.800,0.769991
845.900,0.770885
846.000,0.771759
846.100,0.772644
846.200,0.773540
846.300,0.774415
846.400,0.775149
846.500,0.775973
846.600,0.776860
846.700,0.777675
846.800,0.778558
846.900,0.779430
847.000,0.780231
847.100,0.780938
847.200,0.781731
847.300,0.782585
847.400,0.783440
847.500,0.784243
847.600,0.785059
847.700,0.785703
847.800,0.786511
847.900,0.787297
848.000,0.788126
848.100,0.788943
848.200,0.789693
848.300,0.790356
848.400,0.791099
848.500,0.791906
848.600,0.792702
848.700,0.793433
848.800,0.794220
848.900,0.794943
849.000,0.795581
849.100,0.796363
849.200,0.797113
849.300,0.797858
849.400,0.798562
849.500,0.799321
849.600,0.799918
849.700,0.800632
849.800,0.801385
849.900,0.802071
850.000,0.802810
850.100,0.803525
850.200,0.804220
850.300,0.804796
850.400,0.805463
850.500,0.806185
850.600,0.806907
850.700,0.807584
850.800,0.808274
850.900,0.808795
851.000,0.809499
851.100,0.810142
851.200,0.810818
851.300,0.811510
851.400,0.812143
851.500,0.812704
851.600,0.813331
851.700,0.813990
851.800,0.814666
851.900,0.815307
852.000,0.815975
852.100,0.816586
852.200,0.817108
852.300,0.817732
852.400,0.818368
852.500,0.818967
852.600,0.819615
852.700,0.820207
852.800,0.820733
852.900,0.821319
853.000,0.821937
853.100,0.822549
853.200,0.823127
853.300,0.823736
853.400,0.824325
853.500,0.824815
853.600,0.825381
853.700,0.826018
853.800,0.826578
853.900,0.827169
854.000,0.827742
854.100,0.828184
854.200,0.828766
854.300,0.829330
854.400,0.829907
854.500,0.830449
854.600,0.831037
854.700,0.831564
854.800,0.832023
854.900,0.832571
855.000,0.833099
855.100,0.833657
855.200,0.834197
855.300,0.834749
855.400,0.835163
855.500,0.835711
855.600,0.836240
855.700,0.836783
855.800,0.837291
855.900,0.837776
856.000,0.838327
856.100,0.838727
856.200,0.839257
856.300,0.839769
856.400,0.840305
856.500,0.840796
856.600,0.841285
856.700,0.841720
856.800,0.842205
856.900,0.842717
857.000,0.843197
857.100,0.843701
857.200,0.844177
857.300,0.844680
857.400,0.845071
857.500,0.845539
857.600,0.846036
857.700,0.846500
857.800,0.847007
857.900,0.847467
858.000,0.847872
858.100,0.848328
858.200,0.848825
858.300,0.849276
858.400,0.849726
858.500,0.850202
858.600,0.850643
858.700,0.851026
858.800,0.851467
858.900,0.851935
859.000,0.852386
859.100,0.852849
859.200,0.853282
859.300,0.853626
859.400,0.854066
859.500,0.854507
859.600,0.854961
859.700,0.855394
859.800,0.855826
859.900,0.856259
860.000,0.856619
860.100,0.857035
860.200,0.857449
860.300,0.857872
860.400,0.858295
860.500,0.858731
860.600,0.859055
860.700,0.859487
860.800,0.859873
860.900,0.860314
861.000,0.860714
861.100,0.861111
861.200,0.861534
861.300,0.861856
861.400,0.862272
861.500,0.862662
861.600,0.863078
861.700,0.863465
861.800,0.863876
861.900,0.864257
862.000,0.864561
862.100,0.864967
862.200,0.865346
862.300,0.865749
862.400,0.866109
862.500,0.866521
862.600,0.866816
862.700,0.867213
862.800,0.867582
862.900,0.867934
863.000,0.868333
863.100,0.868709
863.200,0.869097
863.300,0.869384
863.400,0.869754
863.500,0.870112
863.600,0.870493
863.700,0.870859
863.800,0.871198
863.900,0.871503
864.000,0.871853
864.100,0.872227
864.200,0.872560
864.300,0.872930
864.400,0.873275
864.500,0.873653
864.600,0.873918
864.700,0.874258
864.800,0.874621
864.900,0.874958
865.000,0.875304
865.100,0.875638
865.200,0.875995
865.300,0.876269
865.400,0.876586
865.500,0.876939
865.600,0.877266
865.700,0.877602
865.800,0.877927
865.900,0.878207
866.000,0.878516
866.100,0.878871
866.200,0.879190
866.300,0.879502
866.400,0.879842
866.500,0.880157
866.600,0.880417
866.700,0.880730
866.800,0.881065
866.900,0.881362
867.000,0.881694
867.100,0.882002
867.200,0.882232
867.300,0.882560
867.400,0.882852
867.500,0.883178
867.600,0.883489
867.700,0.883800
867.800,0.884099
867.900,0.884364
868.000,0.884648
868.100,0.884944
868.200,0.885249
868.300,0.885542
868.400,0.885856
868.500,0.886135
868.600,0.886386
868.700,0.886675
868.800,0.886972
868.900,0.887259
869.000,0.887532
869.100,0.887838
869.200,0.888062
869.300,0.888354
869.400,0.888644
869.500,0.888933
869.600,0.889218
869.700,0.889517
869.800,0.889781
869.900,0.889999
870.000,0.890283
870.100,0.890556
870.200,0.890850
870.300,0.891109
870.400,0.891400
870.500,0.891658
870.600,0.891891
870.700,0.892146
870.800,0.892412
870.900,0.892687
871.000,0.892951
871.100,0.893223
871.200,0.893436
871.300,0.893717
871.400,0.893966
871.500,0.894245
871.600,0.894492
871.700,0.894749
871.800,0.895014
871.900,0.895216
872.000,0.895479
872.100,0.895732
872.200,0.896004
872.300,0.896245
872.400,0.896515
872.500,0.896753
872.600,0.896949
872.700,0.897206
872.800,0.897453
872.900,0.897713
873.000,0.897957
873.100,0.898220
873.200,0.898402
873.300,0.898663
873.400,0.898894
873.500,0.899134
873.600,0.899382
873.700,0.899620
873.800,0.899867
873.900,0.900054
874.000,0.900299
874.100,0.900533
874.200,0.900749
874.300,0.901002
874.400,0.901224
874.500,0.901469
874.600,0.901651
874.700,0.901890
874.800,0.902119
874.900,0.902356
875.000,0.902583
875.100,0.902800
875.200,0.903044
875.300,0.903211
875.400,0.903444
875.500,0.903667
875.600,0.903899
875.700,0.904120
875.800,0.904350
875.900,0.904523
876.000,0.904725
876.100,0.904953
876.200,0.905175
876.300,0.905401
876.400,0.905616
876.500,0.905841
876.600,0.906009
876.700,0.906232
876.800,0.906436
876.900,0.906648
877.000,0.906868
877.100,0.907079
877.200,0.907298
877.300,0.907455
877.400,0.907673
877.500,0.907871
877.600,0.908096
877.700,0.908294
877.800,0.908503
877.900,0.908717
878.000,0.908869
878.100,0.909090
878.200,0.909284
878.300,0.909503
878.400,0.909696
878.500,0.909898
878.600,0.910055
878.700,0.910263
878.800,0.910453
878.900,0.910668
879.000,0.910874
879.100,0.911062
879.200,0.911275
879.300,0.911430
879.400,0.911624
879.500,0.911827
879.600,0.912029
879.700,0.912221
879.800,0.912421
879.900,0.912621
880.000,0.912787
880.100,0.912962
880.200,0.913168
880.300,0.913365
880.400,0.913545
880.500,0.913748
880.600,0.913943
880.700,0.914077
880.800,0.914273
880.900,0.914466
881.000,0.914650
881.100,0.914842
881.200,0.915033
881.300,0.915176
881.400,0.915359
881.500,0.915549
881.600,0.915721
881.700,0.915917
881.800,0.916104
881.900,0.916275
882.000,0.916423
882.100,0.916610
882.200,0.916779
882.300,0.916964
882.400,0.917155
882.500,0.917323
882.600,0.917499
882.700,0.917644
882.800,0.917833
882.900,0.917998
883.000,0.918178
883.100,0.918365
883.200,0.918523
883.300,0.918701
883.400,0.918850
883.500,0.919012
883.600,0.919189
883.700,0.919366
883.800,0.919527
883.900,0.919702
884.000,0.919876
884.100,0.920006
884.200,0.920174
884.300,0.920347
884.400,0.920511
884.500,0.920683
884.600,0.920854
884.700,0.921004
884.800,0.921143
884.900,0.921313
885.000,0.921467
885.100,0.921630
885.200,0.921805
885.300,0.921958
885.400,0.922090
885.500,0.922257
885.600,0.922417
885.700,0.922575
885.800,0.922740
885.900,0.922904
886.000,0.923048
886.100,0.923184
886.200,0.923347
886.300,0.923495
886.400,0.923652
886.500,0.923820
886.600,0.923966
886.700,0.924126
886.800,0.924248
886.900,0.924400
887.000,0.924559
887.100,0.924717
887.200,0.924855
887.300,0.925019
887.400,0.925176
887.500,0.925286
887.600,0.925437
887.700,0.925593
887.800,0.925740
887.900,0.925895
888.000,0.926044
888.100,0.926183
888.200,0.926305
888.300,0.926464
888.400,0.926611
888.500,0.926749
888.600,0.926901
888.700,0.927051
888.800,0.927183
888.900,0.927305
889.000,0.927455
889.100,0.927590
889.200,0.927734
889.300,0.927882
889.400,0.928016
889.500,0.928170
889.600,0.928281
889.700,0.928414
889.800,0.928560
889.900,0.928701
890.000,0.928833
890.100,0.928984
890.200,0.929098
890.300,0.929223
890.400,0.929367
890.500,0.929510
890.600,0.929635
890.700,0.929783
890.800,0.929925
890.900,0.930019
891.000,0.930160
891.100,0.930300
891.200,0.930436
891.300,0.930562
891.400,0.930702
891.500,0.930841
891.600,0.930938
891.700,0.931076
891.800,0.931214
891.900,0.931334
892.000,0.931471
892.100,0.931607
892.200,0.931726
892.300,0.931833
892.400,0.931969
892.500,0.932087
892.600,0.932221
892.700,0.932355
892.800,0.932478
892.900,0.932611
893.000,0.932714
893.100,0.932829
893.200,0.932962
893.300,0.933094
893.400,0.933208
893.500,0.933339
893.600,0.933470
893.700,0.933569
893.800,0.933687
893.900,0.933816
894.000,0.933941
894.100,0.934063
894.200,0.934188
894.300,0.934316
894.400,0.934405
894.500,0.934528
894.600,0.934655
894.700,0.934770
894.800,0.934892
894.900,0.935018
895.000,0.935131
895.100,0.935232
895.200,0.935357
895.300,0.935469
895.400,0.935590
895.500,0.935714
895.600,0.935825
895.700,0.935944
895.800,0.936041
895.900,0.936152
896.000,0.936270
896.100,0.936392
896.200,0.936498
896.300,0.936619
896.400,0.936740
896.500,0.936832
896.600,0.936940
896.700,0.937056
896.800,0.937176
896.900,0.937283
897.000,0.937398
897.100,0.937515
897.200,0.937592
897.300,0.937711
897.400,0.937828
897.500,0.937930
897.600,0.938047
897.700,0.938160
897.800,0.938265
897.900,0.938357
898.000,0.938469
898.100,0.938573
898.200,0.938684
898.300,0.938794
898.400,0.938897
898.500,0.939008
898.600,0.939098
898.700,0.939196
898.800,0.939309
898.900,0.939419
899.000,0.939520
899.100,0.939633
899.200,0.939741
899.300,0.939829
899.400,0.939926
899.500,0.940037
899.600,0.940148
899.700,0.940244
899.800,0.940354
899.900,0.940461
900.000,0.940536
900.100,0.940642
900.200,0.940751
900.300,0.940849
900.400,0.940954
900.500,0.941063
900.600,0.941156
900.700,0.941241
900.800,0.941345
900.900,0.941441
901.000,0.941545
901.100,0.941652
901.200,0.941745
901.300,0.941843
901.400,0.941927
901.500,0.942018
901.600,0.942123
901.700,0.942225
901.800,0.942319
901.900,0.942420
902.000,0.942524
902.100,0.942603
902.200,0.942696
902.300,0.942799
902.400,0.942899
902.500,0.942991
902.600,0.943086
902.700,0.943188
902.800,0.943255
902.900,0.943357
903.000,0.943455
903.100,0.943546
903.200,0.943643
903.300,0.943744
903.400,0.943831
903.500,0.943908
903.600,0.944001
903.700,0.944090
903.800,0.944186
903.900,0.944284
904.000,0.944369
904.100,0.944468
904.200,0.944542
904.300,0.944639
904.400,0.944719
904.500,0.944817
904.600,0.944915
904.700,0.944999
904.800,0.945094
904.900,0.945167
905.000,0.945253
905.100,0.945343
905.200,0.945437
905.300,0.945520
905.400,0.945615
905.500,0.945707
905.600,0.945772
905.700,0.945862
905.800,0.945950
905.900,0.946034
906.000,0.946126
906.100,0.946218
906.200,0.946299
906.300,0.946372
906.400,0.946462
906.500,0.946554
906.600,0.946630
906.700,0.946723
906.800,0.946812
906.900,0.946894
907.000,0.946962
907.100,0.947054
907.200,0.947132
907.300,0.947224
907.400,0.947306
907.500,0.947387
907.600,0.947475
907.700,0.947546
907.800,0.947624
907.900,0.947712
908.000,0.947799
908.100,0.947872
908.200,0.947961
908.300,0.948046
908.400,0.948116
908.500,0.948192
908.600,0.948277
908.700,0.948361
908.800,0.948439
908.900,0.948524
909.000,0.948612
909.100,0.948664
909.200,0.948747
909.300,0.948834
909.400,0.948909
909.500,0.948995
909.600,0.949074
909.700,0.949150
909.800,0.949233
909.900,0.949298
910.000,0.949371
910.100,0.949452
910.200,0.949537
910.300,0.949610
910.400,0.949691
910.500,0.949771
910.600,0.949837
910.700,0.949910
910.800,0.949987
910.900,0.950070
911.000,0.950141
911.100,0.950225
911.200,0.950301
911.300,0.950357
911.400,0.950436
911.500,0.950516
911.600,0.950586
911.700,0.950665
911.800,0.950746
911.900,0.950816
912.000,0.950877
912.100,0.950956
912.200,0.951025
912.300,0.951105
912.400,0.951183
912.500,0.951264
912.600,0.951329
912.700,0.951388
912.800,0.951469
912.900,0.951537
913.000,0.951613
913.100,0.951689
913.200,0.951757
913.300,0.951833
913.400,0.951892
913.500,0.951960
913.600,0.952034
913.700,0.952110
913.800,0.952179
913.900,0.952251
914.000,0.952326
914.100,0.952378
914.200,0.952450
914.300,0.952527
914.400,0.952593
914.500,0.952667
914.600,0.952740
914.700,0.952814
914.800,0.952866
914.900,0.952939
915.000,0.953009
915.100,0.953077
915.200,0.953150
915.300,0.953219
915.400,0.953286
915.500,0.953359
915.600,0.953418
915.700,0.953478
915.800,0.953550
915.900,0.953624
916.000,0.953685
916.100,0.953757
916.200,0.953830
916.300,0.953874
916.400,0.953948
916.500,0.954019
916.600,0.954089
916.700,0.954151
916.800,0.954222
916.900,0.954292
917.000,0.954338
917.100,0.954407
917.200,0.954477
917.300,0.954538
917.400,0.954608
917.500,0.954677
917.600,0.954738
917.700,0.954791
917.800,0.954858
917.900,0.954921
918.000,0.954989
918.100,0.955055
918.200,0.955117
918.300,0.955186
918.400,0.955235
918.500,0.955297
918.600,0.955362
918.700,0.955430
918.800,0.955499
918.900,0.955556
919.000,0.955623
919.100,0.955693
919.200,0.955734
919.300,0.955800
919.400,0.955866
919.500,0.955925
919.600,0.955992
919.700,0.956056
919.800,0.956115
919.900,0.956163
920.000,0.956229
920.100,0.956289
920.200,0.956351
920.300,0.956417
920.400,0.956474
920.500,0.956539
920.600,0.956589
920.700,0.956653
920.800,0.956710
920.900,0.956772
921.000,0.956838
921.100,0.956895
921.200,0.956956
921.300,0.957006
921.400,0.957065
921.500,0.957125
921.600,0.957188
921.700,0.957244
921.800,0.957307
921.900,0.957370
922.000,0.957410
922.100,0.957474
922.200,0.957534
922.300,0.957589
922.400,0.957653
922.500,0.957713
922.600,0.957768
922.700,0.957830
922.800,0.957877
922.900,0.957936
923.000,0.957993
923.100,0.958055
923.200,0.958113
923.300,0.958167
923.400,0.958228
923.500,0.958275
923.600,0.958326
923.700,0.958388
923.800,0.958446
923.900,0.958500
924.000,0.958561
924.100,0.958620
924.200,0.958659
924.300,0.958717
924.400,0.958777
924.500,0.958829
924.600,0.958888
924.700,0.958945
924.800,0.959005
924.900,0.959043
925.000,0.959101
925.100,0.959161
925.200,0.959210
925.300,0.959271
925.400,0.959327
925.500,0.959378
925.600,0.959434
925.700,0.959482
925.800,0.959530
925.900,0.959588
926.000,0.959644
926.100,0.959697
926.200,0.959755
926.300,0.959809
926.400,0.959846
926.500,0.959904
926.600,0.959961
926.700,0.960009
926.800,0.960065
926.900,0.960122
927.000,0.960179
927.100,0.960213
927.200,0.960269
927.300,0.960326
927.400,0.960375
927.500,0.960429
927.600,0.960485
927.700,0.960532
927.800,0.960590
927.900,0.960623
928.000,0.960679
928.100,0.960724
928.200,0.960774
928.300,0.960819
928.400,0.960875
928.500,0.960920
928.600,0.960957
928.700,0.961003
928.800,0.961057
928.900,0.961102
929.000,0.961149
929.100,0.961197
929.200,0.961250
929.300,0.961282
929.400,0.961330
929.500,0.961374
929.600,0.961430
929.700,0.961474
929.800,0.961521
929.900,0.961572
930.000,0.961620
930.100,0.961652
930.200,0.961699
930.300,0.961749
930.400,0.961795
930.500,0.961839
930.600,0.961887
930.700,0.961937
930.800,0.961970
930.900,0.962014
931.000,0.962060
931.100,0.962111
931.200,0.962155
931.300,0.962200
931.400,0.962249
931.500,0.962282
931.600,0.962328
931.700,0.962372
931.800,0.962422
931.900,0.962467
932.000,0.962509
932.100,0.962554
932.200,0.962592
932.300,0.962635
932.400,0.962679
932.500,0.962721
932.600,0.962773
932.700,0.962814
932.800,0.962860
932.900,0.962902
933.000,0.962941
933.100,0.962982
933.200,0.963024
933.300,0.963074
933.400,0.963117
933.500,0.963161
933.600,0.963202
933.700,0.963240
933.800,0.963281
933.900,0.963322
934.000,0.963368
934.100,0.963415
934.200,0.963457
934.300,0.963498
934.400,0.963541
934.500,0.963576
934.600,0.963619
934.700,0.963662
934.800,0.963702
934.900,0.963750
935.000,0.963790
935.100,0.963831
935.200,0.963868
935.300,0.963909
935.400,0.963950
935.500,0.963992
935.600,0.964037
935.700,0.964079
935.800,0.964119
935.900,0.964147
936.000,0.964197
936.100,0.964236
936.200,0.964276
936.300,0.964317
936.400,0.964362
936.500,0.964402
936.600,0.964443
936.700,0.964478
936.800,0.964519
936.900,0.964558
937.000,0.964597
937.100,0.964644
937.200,0.964683
937.300,0.964721
937.400,0.964750
937.500,0.964797
937.600,0.964835
937.700,0.964875
937.800,0.964913
937.900,0.964958
938.000,0.964998
938.100,0.965025
938.200,0.965065
938.300,0.965111
938.400,0.965149
938.500,0.965188
938.600,0.965232
938.700,0.965270
938.800,0.965309
938.900,0.965336
939.000,0.965382
939.100,0.965419
939.200,0.965457
939.300,0.965497
939.400,0.965540
939.500,0.965577
939.600,0.965605
939.700,0.965643
939.800,0.965685
939.900,0.965724
940.000,0.965761
940.100,0.965797
940.200,0.965841
940.300,0.965880
940.400,0.965906
940.500,0.965948
940.600,0.965987
940.700,0.966023
940.800,0.966059
940.900,0.966103
941.000,0.966139
941.100,0.966165
941.200,0.966201
941.300,0.966246
941.400,0.966282
941.500,0.966318
941.600,0.966355
941.700,0.966397
941.800,0.966423
941.900,0.966460
942.000,0.966501
942.100,0.966536
942.200,0.966574
942.300,0.966609
942.400,0.966650
942.500,0.966687
942.600,0.966714
942.700,0.966749
942.800,0.966789
942.900,0.966826
943.000,0.966861
943.100,0.966896
943.200,0.966939
943.300,0.966963
943.400,0.966997
943.500,0.967032
943.600,0.967074
943.700,0.967109
943.800,0.967143
943.900,0.967185
944.000,0.967221
944.100,0.967245
944.200,0.967279
944.300,0.967321
944.400,0.967355
944.500,0.967389
944.600,0.967425
944.700,0.967464
944.800,0.967488
944.900,0.967524
945.000,0.967558
945.100,0.967597
945.200,0.967632
945.300,0.967666
945.400,0.967699
945.500,0.967738
945.600,0.967763
945.700,0.967797
945.800,0.967836
945.900,0.967870
946.000,0.967904
946.100,0.967937
946.200,0.967975
946.300,0.968002
946.400,0.968035
946.500,0.968068
946.600,0.968106
946.700,0.968140
946.800,0.968173
946.900,0.968206
947.000,0.968244
947.100,0.968267
947.200,0.968301
947.300,0.968339
947.400,0.968371
947.500,0.968404
947.600,0.968438
947.700,0.968475
947.800,0.968498
947.900,0.968530
948.000,0.968564
948.100,0.968601
948.200,0.968634
948.300,0.968665
948.400,0.968699
948.500,0.968736
948.600,0.968759
948.700,0.968790
948.800,0.968823
948.900,0.968861
949.000,0.968892
949.100,0.968923
949.200,0.968955
949.300,0.968984
949.400,0.969015
949.500,0.969047
949.600,0.969078
949.700,0.969109
949.800,0.969140
949.900,0.969178
950.000,0.969209
950.100,0.969231
950.200,0.969262
950.300,0.969293
950.400,0.969326
950.500,0.969361
950.600,0.969392
950.700,0.969423
950.800,0.969445
950.900,0.969475
951.000,0.969508
951.100,0.969543
951.200,0.969573
951.300,0.969604
951.400,0.969634
951.500,0.969664
951.600,0.969693
951.700,0.969723
951.800,0.969753
951.900,0.969783
952.000,0.969813
952.100,0.969845
952.200,0.969880
952.300,0.969901
952.400,0.969931
952.500,0.969961
952.600,0.969990
952.700,0.970022
952.800,0.970057
952.900,0.970086
953.000,0.970116
953.100,0.970137
953.200,0.970166
953.300,0.970197
953.400,0.970232
953.500,0.970261
953.600,0.970289
953.700,0.970318
953.800,0.970339
953.900,0.970375
954.000,0.970404
954.100,0.970433
954.200,0.970462
954.300,0.970491
954.400,0.970520
954.500,0.970553
954.600,0.970574
954.700,0.970603
954.800,0.970633
954.900,0.970662
955.000,0.970691
955.100,0.970724
955.200,0.970753
955.300,0.970773
955.400,0.970801
955.500,0.970831
955.600,0.970860
955.700,0.970893
955.800,0.970921
955.900,0.970950
956.000,0.970977
956.100,0.970998
956.200,0.971031
956.300,0.971059
956.400,0.971087
956.500,0.971115
956.600,0.971145
956.700,0.971173
956.800,0.971197
956.900,0.971225
957.000,0.971253
957.100,0.971281
957.200,0.971308
957.300,0.971338
957.400,0.971370
957.500,0.971398
957.600,0.971416
957.700,0.971444
957.800,0.971471
957.900,0.971498
958.000,0.971530
958.100,0.971558
958.200,0.971587
958.300,0.971614
958.400,0.971633
958.500,0.971665
958.600,0.971692
958.700,0.971719
958.800,0.971746
958.900,0.971772
959.000,0.971799
959.100,0.971822
959.200,0.971850
959.300,0.971876
959.400,0.971903
959.500,0.971930
959.600,0.971957
959.700,0.971988
959.800,0.972015
959.900,0.972035
960.000,0.972060
960.100,0.972087
960.200,0.972114
960.300,0.972145
960.400,0.972171
960.500,0.972197
960.600,0.972216
960.700,0.972242
960.800,0.972270
960.900,0.972301
961.000,0.972327
961.100,0.972352
961.200,0.972378
961.300,0.972404
961.400,0.972427
961.500,0.972453
961.600,0.972479
961.700,0.972506
961.800,0.972532
961.900,0.972558
962.000,0.972587
962.100,0.972613
962.200,0.972631
962.300,0.972657
962.400,0.972682
962.500,0.972708
962.600,0.972738
962.700,0.972764
962.800,0.972789
962.900,0.972806
963.000,0.972831
963.100,0.972857
963.200,0.972886
963.300,0.972912
963.400,0.972937
963.500,0.972964
963.600,0.972989
963.700,0.973010
963.800,0.973035
963.900,0.973060
964.000,0.973085
964.100,0.973110
964.200,0.973135
964.300,0.973165
964.400,0.973182
964.500,0.973206
964.600,0.973231
964.700,0.973255
964.800,0.973280
964.900,0.973309
965.000,0.973334
965.100,0.973359
965.200,0.973375
965.300,0.973399
965.400,0.973424
965.500,0.973453
965.600,0.973477
965.700,0.973502
965.800,0.973526
965.900,0.973550
966.000,0.973571
966.100,0.973595
966.200,0.973619
966.300,0.973644
966.400,0.973668
966.500,0.973692
966.600,0.973720
966.700,0.973736
966.800,0.973760
966.900,0.973784
967.000,0.973809
967.100,0.973833
967.200,0.973859
967.300,0.973884
967.400,0.973907
967.500,0.973924
967.600,0.973948
967.700,0.973972
967.800,0.974000
967.900,0.974022
968.000,0.974046
968.100,0.974070
968.200,0.974093
968.300,0.974114
968.400,0.974138
968.500,0.974161
968.600,0.974183
968.700,0.974207
968.800,0.974230
968.900,0.974258
969.000,0.974274
969.100,0.974297
969.200,0.974320
969.300,0.974343
969.400,0.974366
969.500,0.974393
969.600,0.974416
969.700,0.974438
969.800,0.974455
969.900,0.974478
970.000,0.974501
970.100,0.974528
970.200,0.974551
970.300,0.974573
970.400,0.974596
970.500,0.974618
970.600,0.974634
970.700,0.974657
970.800,0.974679
970.900,0.974701
971.000,0.974724
971.100,0.974746
971.200,0.974773
971.300,0.974789
971.400,0.974810
971.500,0.974832
971.600,0.974855
971.700,0.974877
971.800,0.974900
971.900,0.974922
972.000,0.974943
972.100,0.974959
972.200,0.974981
972.300,0.975002
972.400,0.975024
972.500,0.975045
972.600,0.975067
972.700,0.975090
972.800,0.975116
972.900,0.975130
973.000,0.975152
973.100,0.975174
973.200,0.975196
973.300,0.975218
973.400,0.975239
973.500,0.975260
973.600,0.975282
973.700,0.975298
973.800,0.975318
973.900,0.975339
974.000,0.975361
974.100,0.975382
974.200,0.975404
974.300,0.975424
974.400,0.975443
974.500,0.975465
974.600,0.975487
974.700,0.975507
974.800,0.975527
974.900,0.975549
975.000,0.975570
975.100,0.975591
975.200,0.975606
975.300,0.975627
975.400,0.975647
975.500,0.975668
975.600,0.975689
975.700,0.975710
975.800,0.975731
975.900,0.975752
976.000,0.975767
976.100,0.975792
976.200,0.975812
976.300,0.975833
976.400,0.975854
976.500,0.975875
976.600,0.975895
976.700,0.975908
976.800,0.975929
976.900,0.975950
977.000,0.975971
977.100,0.975991
977.200,0.976012
977.300,0.976033
977.400,0.976054
977.500,0.976067
977.600,0.976088
977.700,0.976112
977.800,0.976133
977.900,0.976153
978.000,0.976173
978.100,0.976194
978.200,0.976213
978.300,0.976226
978.400,0.976247
978.500,0.976267
978.600,0.976288
978.700,0.976307
978.800,0.976328
978.900,0.976348
979.000,0.976369
979.100,0.976382
979.200,0.976402
979.300,0.976425
979.400,0.976445
979.500,0.976464
979.600,0.976485
979.700,0.976505
979.800,0.976519
979.900,0.976538
980.000,0.976557
980.100,0.976577
980.200,0.976597
980.300,0.976616
980.400,0.976636
980.500,0.976656
980.600,0.976670
980.700,0.976689
980.800,0.976708
980.900,0.976728
981.000,0.976751
981.100,0.976770
981.200,0.976790
981.300,0.976810
981.400,0.976823
981.500,0.976841
981.600,0.976861
981.700,0.976880
981.800,0.976899
981.900,0.976919
982.000,0.976938
982.100,0.976958
982.200,0.976969
982.300,0.976989
982.400,0.977009
982.500,0.977027
982.600,0.977050
982.700,0.977068
982.800,0.977088
982.900,0.977106
983.000,0.977120
983.100,0.977139
983.200,0.977157
983.300,0.977176
983.400,0.977195
983.500,0.977214
983.600,0.977232
983.700,0.977244
983.800,0.977264
983.900,0.977283
984.000,0.977301
984.100,0.977320
984.200,0.977343
984.300,0.977361
984.400,0.977380
984.500,0.977393
984.600,0.977411
984.700,0.977429
984.800,0.977448
984.900,0.977467
985.000,0.977485
985.100,0.977504
985.200,0.977523
985.300,0.977534
985.400,0.977552
985.500,0.977571
985.600,0.977589
985.700,0.977608
985.800,0.977629
985.900,0.977647
986.000,0.977665
986.100,0.977678
986.200,0.977696
986.300,0.977713
986.400,0.977732
986.500,0.977751
986.600,0.977768
986.700,0.977786
986.800,0.977804
986.900,0.977817
987.000,0.977834
987.100,0.977853
987.200,0.977871
987.300,0.977888
987.400,0.977906
987.500,0.977928
987.600,0.977939
987.700,0.977958
987.800,0.977975
987.900,0.977992
988.000,0.978010
988.100,0.978029
988.200,0.978047
988.300,0.978063
988.400,0.978076
988.500,0.978094
988.600,0.978111
988.700,0.978128
988.800,0.978146
988.900,0.978163
989.000,0.978181
989.100,0.978201
989.200,0.978213
989.300,0.978231
989.400,0.978249
989.500,0.978265
989.600,0.978283
989.700,0.978300
989.800,0.978316
989.900,0.978334
990.000,0.978346
990.100,0.978363
990.200,0.978381
990.300,0.978399
990.400,0.978415
990.500,0.978432
990.600,0.978449
990.700,0.978470
990.800,0.978482
990.900,0.978498
991.000,0.978515
991.100,0.978533
991.200,0.978550
991.300,0.978567
991.400,0.978584
991.500,0.978600
991.600,0.978612
991.700,0.978630
991.800,0.978642
991.900,0.978659
992.000,0.978677
992.100,0.978693
992.200,0.978710
992.300,0.978718
992.400,0.978735
992.500,0.978752
992.600,0.978768
992.700,0.978785
992.800,0.978799
992.900,0.978816
993.000,0.978831
993.100,0.978843
993.200,0.978860
993.300,0.978873
993.400,0.978890
993.500,0.978906
993.600,0.978923
993.700,0.978940
993.800,0.978952
993.900,0.978964
994.000,0.978981
994.100,0.978997
994.200,0.979013
994.300,0.979027
994.400,0.979043
994.500,0.979059
994.600,0.979076
994.700,0.979086
994.800,0.979100
994.900,0.979115
995.000,0.979132
995.100,0.979149
995.200,0.979165
995.300,0.979177
995.400,0.979194
995.500,0.979205
995.600,0.979221
995.700,0.979236
995.800,0.979250
995.900,0.979266
996.000,0.979282
996.100,0.979298
996.200,0.979314
996.300,0.979325
996.400,0.979338
996.500,0.979353
996.600,0.979370
996.700,0.979385
996.800,0.979401
996.900,0.979414
997.000,0.979429
997.100,0.979440
997.200,0.979457
997.300,0.979471
997.400,0.979485
997.500,0.979501
997.600,0.979515
997.700,0.979532
997.800,0.979547
997.900,0.979556
998.000,0.979571
998.100,0.979586
998.200,0.979603
998.300,0.979617
998.400,0.979630
998.500,0.979646
998.600,0.979661
998.700,0.979672
998.800,0.979688
998.900,0.979699
999.000,0.979715
999.100,0.979731
999.200,0.979746
999.300,0.979762
999.400,0.979769
999.500,0.979784
999.600,0.979799
999.700,0.979814
999.800,0.979829
999.900,0.979842
1000.000,0.979857