Wavelength,Reflectance
400.000,0.815387
400.100,0.815358
400.200,0.815330
400.300,0.815301
400.400,0.815274
400.500,0.815244
400.600,0.815217
400.700,0.815188
400.800,0.815159
400.900,0.815131
401.000,0.815102
401.100,0.815078
401.200,0.815051
401.300,0.815027
401.400,0.815000
401.500,0.814974
401.600,0.814950
401.700,0.814923
401.800,0.814899
401.900,0.814873
402.000,0.814849
402.100,0.814823
402.200,0.814799
402.300,0.814772
402.400,0.814749
402.500,0.814723
402.600,0.814700
402.700,0.814676
402.800,0.814654
402.900,0.814631
403.000,0.814610
403.100,0.814586
403.200,0.814565
403.300,0.814542
403.400,0.814521
403.500,0.814497
403.600,0.814476
403.700,0.814453
403.800,0.814432
403.900,0.814409
404.000,0.814388
404.100,0.814364
404.200,0.814345
404.300,0.814323
404.400,0.814305
404.500,0.814284
404.600,0.814266
404.700,0.814245
404.800,0.814227
404.900,0.814206
405.000,0.814188
405.100,0.814167
405.200,0.814149
405.300,0.814131
405.400,0.814111
405.500,0.814093
405.600,0.814072
405.700,0.814054
405.800,0.814035
405.900,0.814019
406.000,0.814001
406.100,0.813985
406.200,0.813967
406.300,0.813951
406.400,0.813932
406.500,0.813917
406.600,0.813899
406.700,0.813883
406.800,0.813865
406.900,0.813849
407.000,0.813831
407.100,0.813816
407.200,0.813798
407.300,0.813782
407.400,0.813766
407.500,0.813752
407.600,0.813736
407.700,0.813723
407.800,0.813707
407.900,0.813693
408.000,0.813678
408.100,0.813664
408.200,0.813648
408.300,0.813635
408.400,0.813619
408.500,0.813606
408.600,0.813593
408.700,0.813577
408.800,0.813565
408.900,0.813549
409.000,0.813537
409.100,0.813523
409.200,0.813512
409.300,0.813498
409.400,0.813487
409.500,0.813473
409.600,0.813462
409.700,0.813448
409.800,0.813437
409.900,0.813424
410.000,0.813413
410.100,0.813399
410.200,0.813388
410.300,0.813374
410.400,0.813363
410.500,0.813349
410.600,0.813340
410.700,0.813328
410.800,0.813319
410.900,0.813308
411.000,0.813298
411.100,0.813287
411.200,0.813278
411.300,0.813265
411.400,0.813256
411.500,0.813245
411.600,0.813235
411.700,0.813226
411.800,0.813215
411.900,0.813206
412.000,0.813194
412.100,0.813185
412.200,0.813175
412.300,0.813167
412.400,0.813157
412.500,0.813150
412.600,0.813140
412.700,0.813132
412.800,0.813122
412.900,0.813115
413.000,0.813104
413.100,0.813097
413.200,0.813087
413.300,0.813080
413.400,0.813070
413.500,0.813062
413.600,0.813052
413.700,0.813045
413.800,0.813037
413.900,0.813031
414.000,0.813022
414.100,0.813016
414.200,0.813008
414.300,0.813002
414.400,0.812993
414.500,0.812987
414.600,0.812979
414.700,0.812973
414.800,0.812964
414.900,0.812959
415.000,0.812953
415.100,0.812944
415.200,0.812938
415.300,0.812933
415.400,0.812926
415.500,0.812921
415.600,0.812917
415.700,0.812912
415.800,0.812905
415.900,0.812900
416.000,0.812896
416.100,0.812888
416.200,0.812884
416.300,0.812880
416.400,0.812872
416.500,0.812868
416.600,0.812863
416.700,0.812856
416.800,0.812852
416.900,0.812848
417.000,0.812845
417.100,0.812838
417.200,0.812835
417.300,0.812831
417.400,0.812825
417.500,0.812822
417.600,0.812819
417.700,0.812812
417.800,0.812809
417.900,0.812805
418.000,0.812800
418.100,0.812796
418.200,0.812793
418.300,0.812789
418.400,0.812783
418.500,0.812780
418.600,0.812778
418.700,0.812773
418.800,0.812771
418.900,0.812768
419.000,0.812763
419.100,0.812761
419.200,0.812759
419.300,0.812753
419.400,0.812751
419.500,0.812749
419.600,0.812746
419.700,0.812741
419.800,0.812739
419.900,0.812737
420.000,0.812731
420.100,0.812729
420.200,0.812728
420.300,0.812724
420.400,0.812723
420.500,0.812721
420.600,0.812717
420.700,0.812716
420.800,0.812714
420.900,0.812712
421.000,0.812708
421.100,0.812706
421.200,0.812705
421.300,0.812700
421.400,0.812698
421.500,0.812697
421.600,0.812693
421.700,0.812692
421.800,0.812691
421.900,0.812690
422.000,0.812687
422.100,0.812686
422.200,0.812685
422.300,0.812682
422.400,0.812681
422.500,0.812680
422.600,0.812676
422.700,0.812675
422.800,0.812675
422.900,0.812671
423.000,0.812670
423.100,0.812669
423.200,0.812668
423.300,0.812666
423.400,0.812665
423.500,0.812665
423.600,0.812662
423.700,0.812661
423.800,0.812661
423.900,0.812658
424.000,0.812658
424.100,0.812658
424.200,0.812655
424.300,0.812654
424.400,0.812654
424.500,0.812653
424.600,0.812650
424.700,0.812650
424.800,0.812649
424.900,0.812647
425.000,0.812647
425.100,0.812647
425.200,0.812645
425.300,0.812645
425.400,0.812645
425.500,0.812643
425.600,0.812643
425.700,0.812643
425.800,0.812643
425.900,0.812640
426.000,0.812640
426.100,0.812640
426.200,0.812638
426.300,0.812638
426.400,0.812638
426.500,0.812635
426.600,0.812636
426.700,0.812636
426.800,0.812634
426.900,0.812635
427.000,0.812635
427.100,0.812636
427.200,0.812633
427.300,0.812634
427.400,0.812634
427.500,0.812632
427.600,0.812632
427.700,0.812632
427.800,0.812633
427.900,0.812633
428.000,0.812634
428.100,0.812634
428.200,0.812632
428.300,0.812633
428.400,0.812634
428.500,0.812634
428.600,0.812635
428.700,0.812635
428.800,0.812636
428.900,0.812637
429.000,0.812637
429.100,0.812638
429.200,0.812638
429.300,0.812639
429.400,0.812637
429.500,0.812637
429.600,0.812638
429.700,0.812639
429.800,0.812639
429.900,0.812640
430.000,0.812641
430.100,0.812642
430.200,0.812643
430.300,0.812643
430.400,0.812644
430.500,0.812645
430.600,0.812643
430.700,0.812644
430.800,0.812644
430.900,0.812644
431.000,0.812645
431.100,0.812646
431.200,0.812647
431.300,0.812648
431.400,0.812649
431.500,0.812649
431.600,0.812650
431.700,0.812651
431.800,0.812649
431.900,0.812650
432.000,0.812651
432.100,0.812652
432.200,0.812652
432.300,0.812653
432.400,0.812653
432.500,0.812654
432.600,0.812655
432.700,0.812655
432.800,0.812656
432.900,0.812657
433.000,0.812655
433.100,0.812656
433.200,0.812657
433.300,0.812658
433.400,0.812659
433.500,0.812659
433.600,0.812660
433.700,0.812660
433.800,0.812660
433.900,0.812662
434.000,0.812662
434.100,0.812663
434.200,0.812660
434.300,0.812661
434.400,0.812662
434.500,0.812663
434.600,0.812663
434.700,0.812664
434.800,0.812665
434.900,0.812666
435.000,0.812666
435.100,0.812667
435.200,0.812668
435.300,0.812668
435.400,0.812666
435.500,0.812667
435.600,0.812667
435.700,0.812668
435.800,0.812668
435.900,0.812669
436.000,0.812670
436.100,0.812670
436.200,0.812671
436.300,0.812671
436.400,0.812672
436.500,0.812673
436.600,0.812671
436.700,0.812671
436.800,0.812672
436.900,0.812672
437.000,0.812673
437.100,0.812673
437.200,0.812673
437.300,0.812674
437.400,0.812674
437.500,0.812674
437.600,0.812675
437.700,0.812675
437.800,0.812673
437.900,0.812673
438.000,0.812674
438.100,0.812674
438.200,0.812674
438.300,0.812675
438.400,0.812675
438.500,0.812675
438.600,0.812676
438.700,0.812676
438.800,0.812676
438.900,0.812676
439.000,0.812674
439.100,0.812674
439.200,0.812674
439.300,0.812675
439.400,0.812675
439.500,0.812675
439.600,0.812675
439.700,0.812675
439.800,0.812675
439.900,0.812673
440.000,0.812673
440.100,0.812673
440.200,0.812673
440.300,0.812673
440.400,0.812673
440.500,0.812673
440.600,0.812670
440.700,0.812670
440.800,0.812671
440.900,0.812671
441.000,0.812670
441.100,0.812670
441.200,0.812670
441.300,0.812667
441.400,0.812668
441.500,0.812667
441.600,0.812667
441.700,0.812667
441.800,0.812667
441.900,0.812667
442.000,0.812664
442.100,0.812664
442.200,0.812663
442.300,0.812663
442.400,0.812663
442.500,0.812663
442.600,0.812662
442.700,0.812659
442.800,0.812659
442.900,0.812659
443.000,0.812659
443.100,0.812658
443.200,0.812657
443.300,0.812658
443.400,0.812654
443.500,0.812654
443.600,0.812653
443.700,0.812652
443.800,0.812652
443.900,0.812652
444.000,0.812651
444.100,0.812648
444.200,0.812647
444.300,0.812647
444.400,0.812647
444.500,0.812646
444.600,0.812645
444.700,0.812645
444.800,0.812642
444.900,0.812641
445.000,0.812640
445.100,0.812639
445.200,0.812639
445.300,0.812638
445.400,0.812637
445.500,0.812634
445.600,0.812633
445.700,0.812633
445.800,0.812632
445.900,0.812631
446.000,0.812630
446.100,0.812630
446.200,0.812628
446.300,0.812625
446.400,0.812624
446.500,0.812623
446.600,0.812622
446.700,0.812621
446.800,0.812620
446.900,0.812619
447.000,0.812616
447.100,0.812615
447.200,0.812614
447.300,0.812612
447.400,0.812611
447.500,0.812611
447.600,0.812609
447.700,0.812605
447.800,0.812604
447.900,0.812603
448.000,0.812602
448.100,0.812601
448.200,0.812600
448.300,0.812599
448.400,0.812595
448.500,0.812594
448.600,0.812592
448.700,0.812591
448.800,0.812590
448.900,0.812589
449.000,0.812587
449.100,0.812583
449.200,0.812582
449.300,0.812581
449.400,0.812579
449.500,0.812578
449.600,0.812577
449.700,0.812575
449.800,0.812571
449.900,0.812569
450.000,0.812568
450.100,0.812567
450.200,0.812565
450.300,0.812563
450.400,0.812562
450.500,0.812558
450.600,0.812556
450.700,0.812555
450.800,0.812553
450.900,0.812552
451.000,0.812550
451.100,0.812549
451.200,0.812544
451.300,0.812543
451.400,0.812541
451.500,0.812539
451.600,0.812538
451.700,0.812536
451.800,0.812534
451.900,0.812530
452.000,0.812528
452.100,0.812526
452.200,0.812524
452.300,0.812522
452.400,0.812518
452.500,0.812516
452.600,0.812514
452.700,0.812513
452.800,0.812508
452.900,0.812506
453.000,0.812504
453.100,0.812502
453.200,0.812498
453.300,0.812496
453.400,0.812494
453.500,0.812492
453.600,0.812487
453.700,0.812485
453.800,0.812483
453.900,0.812479
454.000,0.812477
454.100,0.812475
454.200,0.812473
454.300,0.812468
454.400,0.812466
454.500,0.812464
454.600,0.812461
454.700,0.812457
454.800,0.812455
454.900,0.812453
455.000,0.812448
455.100,0.812446
455.200,0.812443
455.300,0.812441
455.400,0.812436
455.500,0.812434
455.600,0.812431
455.700,0.812429
455.800,0.812424
455.900,0.812422
456.000,0.812419
456.100,0.812417
456.200,0.812412
456.300,0.812410
456.400,0.812407
456.500,0.812402
456.600,0.812400
456.700,0.812397
456.800,0.812394
456.900,0.812389
457.000,0.812387
457.100,0.812384
457.200,0.812382
457.300,0.812377
457.400,0.812374
457.500,0.812371
457.600,0.812366
457.700,0.812364
457.800,0.812361
457.900,0.812358
458.000,0.812353
458.100,0.812350
458.200,0.812347
458.300,0.812345
458.400,0.812339
458.500,0.812336
458.600,0.812333
458.700,0.812331
458.800,0.812325
458.900,0.812322
459.000,0.812319
459.100,0.812314
459.200,0.812311
459.300,0.812308
459.400,0.812306
459.500,0.812300
459.600,0.812297
459.700,0.812294
459.800,0.812291
459.900,0.812285
460.000,0.812282
460.100,0.812279
460.200,0.812273
460.300,0.812270
460.400,0.812266
460.500,0.812264
460.600,0.812258
460.700,0.812254
460.800,0.812251
460.900,0.812248
461.000,0.812242
461.100,0.812239
461.200,0.812236
461.300,0.812233
461.400,0.812226
461.500,0.812223
461.600,0.812219
461.700,0.812213
461.800,0.812210
461.900,0.812206
462.000,0.812203
462.100,0.812196
462.200,0.812193
462.300,0.812189
462.400,0.812185
462.500,0.812180
462.600,0.812176
462.700,0.812172
462.800,0.812166
462.900,0.812162
463.000,0.812158
463.100,0.812154
463.200,0.812148
463.300,0.812144
463.400,0.812140
463.500,0.812136
463.600,0.812129
463.700,0.812125
463.800,0.812122
463.900,0.812117
464.000,0.812111
464.100,0.812107
464.200,0.812103
464.300,0.812099
464.400,0.812095
464.500,0.812090
464.600,0.812088
464.700,0.812084
464.800,0.812080
464.900,0.812075
465.000,0.812071
465.100,0.812066
465.200,0.812062
465.300,0.812057
465.400,0.812053
465.500,0.812048
465.600,0.812047
465.700,0.812042
465.800,0.812038
465.900,0.812033
466.000,0.812029
466.100,0.812024
466.200,0.812019
466.300,0.812014
466.400,0.812009
466.500,0.812003
466.600,0.812001
466.700,0.811996
466.800,0.811991
466.900,0.811986
467.000,0.811981
467.100,0.811975
467.200,0.811970
467.300,0.811965
467.400,0.811961
467.500,0.811955
467.600,0.811953
467.700,0.811947
467.800,0.811941
467.900,0.811936
468.000,0.811930
468.100,0.811924
468.200,0.811919
468.300,0.811913
468.400,0.811907
468.500,0.811902
468.600,0.811898
468.700,0.811892
468.800,0.811887
468.900,0.811881
469.000,0.811875
469.100,0.811870
469.200,0.811864
469.300,0.811857
469.400,0.811851
469.500,0.811844
469.600,0.811840
469.700,0.811834
469.800,0.811827
469.900,0.811820
470.000,0.811814
470.100,0.811808
470.200,0.811801
470.300,0.811794
470.400,0.811787
470.500,0.811781
470.600,0.811777
470.700,0.811771
470.800,0.811764
470.900,0.811756
471.000,0.811749
471.100,0.811741
471.200,0.811734
471.300,0.811727
471.400,0.811719
471.500,0.811712
471.600,0.811707
471.700,0.811699
471.800,0.811692
471.900,0.811684
472.000,0.811677
472.100,0.811670
472.200,0.811662
472.300,0.811654
472.400,0.811647
472.500,0.811638
472.600,0.811633
472.700,0.811624
472.800,0.811616
472.900,0.811608
473.000,0.811599
473.100,0.811590
473.200,0.811582
473.300,0.811573
473.400,0.811565
473.500,0.811557
473.600,0.811551
473.700,0.811542
473.800,0.811534
473.900,0.811525
474.000,0.811516
474.100,0.811507
474.200,0.811497
474.300,0.811487
474.400,0.811478
474.500,0.811468
474.600,0.811461
474.700,0.811451
474.800,0.811441
474.900,0.811432
475.000,0.811422
475.100,0.811412
475.200,0.811403
475.300,0.811393
475.400,0.811384
475.500,0.811374
475.600,0.811366
475.700,0.811355
475.800,0.811345
475.900,0.811333
476.000,0.811322
476.100,0.811311
476.200,0.811300
476.300,0.811290
476.400,0.811279
476.500,0.811268
476.600,0.811257
476.700,0.811246
476.800,0.811234
476.900,0.811224
477.000,0.811213
477.100,0.811202
477.200,0.811188
477.300,0.811175
477.400,0.811163
477.500,0.811151
477.600,0.811138
477.700,0.811126
477.800,0.811113
477.900,0.811101
478.000,0.811089
478.100,0.811076
478.200,0.811064
478.300,0.811051
478.400,0.811038
478.500,0.811027
478.600,0.811014
478.700,0.811002
478.800,0.810989
478.900,0.810975
479.000,0.810960
479.100,0.810947
479.200,0.810932
479.300,0.810919
479.400,0.810905
479.500,0.810888
479.600,0.810874
479.700,0.810860
479.800,0.810846
479.900,0.810833
480.000,0.810819
480.100,0.810805
480.200,0.810791
480.300,0.810776
480.400,0.810762
480.500,0.810746
480.600,0.810730
480.700,0.810715
480.800,0.810699
480.900,0.810684
481.000,0.810668
481.100,0.810652
481.200,0.810637
481.300,0.810621
481.400,0.810606
481.500,0.810590
481.600,0.810574
481.700,0.810556
481.800,0.810540
481.900,0.810524
482.000,0.810508
482.100,0.810490
482.200,0.810473
482.300,0.810455
482.400,0.810438
482.500,0.810420
482.600,0.810403
482.700,0.810386
482.800,0.810368
482.900,0.810351
483.000,0.810333
483.100,0.810316
483.200,0.810298
483.300,0.810281
483.400,0.810263
483.500,0.810246
483.600,0.810227
483.700,0.810208
483.800,0.810189
483.900,0.810169
484.000,0.810148
484.100,0.810129
484.200,0.810109
484.300,0.810090
484.400,0.810071
484.500,0.810051
484.600,0.810032
484.700,0.810013
484.800,0.809994
484.900,0.809974
485.000,0.809955
485.100,0.809936
485.200,0.809915
485.300,0.809894
485.400,0.809872
485.500,0.809852
485.600,0.809830
485.700,0.809809
485.800,0.809788
485.900,0.809767
486.000,0.809746
486.100,0.809725
486.200,0.809704
486.300,0.809680
486.400,0.809659
486.500,0.809638
486.600,0.809617
486.700,0.809596
486.800,0.809573
486.900,0.809550
487.000,0.809526
487.100,0.809503
487.200,0.809481
487.300,0.809458
487.400,0.809435
487.500,0.809412
487.600,0.809389
487.700,0.809366
487.800,0.809343
487.900,0.809320
488.000,0.809297
488.100,0.809274
488.200,0.809251
488.300,0.809229
488.400,0.809204
488.500,0.809176
488.600,0.809152
488.700,0.809127
488.800,0.809102
488.900,0.809077
489.000,0.809053
489.100,0.809028
489.200,0.809003
489.300,0.808978
489.400,0.808954
489.500,0.808929
489.600,0.808904
489.700,0.808880
489.800,0.808855
489.900,0.808828
490.000,0.808801
490.100,0.808775
490.200,0.808748
490.300,0.808719
490.400,0.808693
490.500,0.808667
490.600,0.808641
490.700,0.808611
490.800,0.808585
490.900,0.808559
491.000,0.808533
491.100,0.808506
491.200,0.808478
491.300,0.808451
491.400,0.808425
491.500,0.808398
491.600,0.808368
491.700,0.808340
491.800,0.808312
491.900,0.808284
492.000,0.808254
492.100,0.808226
492.200,0.808199
492.300,0.808171
492.400,0.808143
492.500,0.808113
492.600,0.808085
492.700,0.808057
492.800,0.808029
492.900,0.807999
493.000,0.807971
493.100,0.807943
493.200,0.807914
493.300,0.807885
493.400,0.807854
493.500,0.807825
493.600,0.807796
493.700,0.807767
493.800,0.807736
493.900,0.807707
494.000,0.807678
494.100,0.807650
494.200,0.807618
494.300,0.807589
494.400,0.807560
494.500,0.807532
494.600,0.807503
494.700,0.807471
494.800,0.807441
494.900,0.807411
495.000,0.807382
495.100,0.807350
495.200,0.807320
495.300,0.807290
495.400,0.807260
495.500,0.807228
495.600,0.807198
495.700,0.807168
495.800,0.807139
495.900,0.807110
496.000,0.807077
496.100,0.807047
496.200,0.807018
496.300,0.806988
496.400,0.806955
496.500,0.806925
496.600,0.806895
496.700,0.806865
496.800,0.806832
496.900,0.806802
497.000,0.806772
497.100,0.806742
497.200,0.806711
497.300,0.806679
497.400,0.806649
497.500,0.806619
497.600,0.806589
497.700,0.806556
497.800,0.806526
497.900,0.806496
498.000,0.806465
498.100,0.806435
498.200,0.806402
498.300,0.806372
498.400,0.806342
498.500,0.806311
498.600,0.806278
498.700,0.806248
498.800,0.806218
498.900,0.806188
499.000,0.806155
499.100,0.806125
499.200,0.806094
499.300,0.806064
499.400,0.806034
499.500,0.806001
499.600,0.805971
499.700,0.805941
499.800,0.805911
499.900,0.805878
500.000,0.805848
500.100,0.805818
500.200,0.805788
500.300,0.805755
500.400,0.805725
500.500,0.805695
500.600,0.805665
500.700,0.805635
500.800,0.805602
500.900,0.805572
501.000,0.805542
501.100,0.805512
501.200,0.805480
501.300,0.805450
501.400,0.805421
501.500,0.805391
501.600,0.805359
501.700,0.805329
501.800,0.805299
501.900,0.805270
502.000,0.805240
502.100,0.805208
502.200,0.805178
502.300,0.805148
502.400,0.805119
502.500,0.805087
502.600,0.805057
502.700,0.805028
502.800,0.804999
502.900,0.804967
503.000,0.804939
503.100,0.804910
503.200,0.804881
503.300,0.804852
503.400,0.804820
503.500,0.804791
503.600,0.804762
503.700,0.804733
503.800,0.804701
503.900,0.804672
504.000,0.804643
504.100,0.804614
504.200,0.804585
504.300,0.804554
504.400,0.804526
504.500,0.804498
504.600,0.804470
504.700,0.804439
504.800,0.804411
504.900,0.804383
505.000,0.804355
505.100,0.804324
505.200,0.804295
505.300,0.804267
505.400,0.804239
505.500,0.804211
505.600,0.804179
505.700,0.804151
505.800,0.804123
505.900,0.804096
506.000,0.804065
506.100,0.804038
506.200,0.804011
506.300,0.803983
506.400,0.803954
506.500,0.803926
506.600,0.803899
506.700,0.803871
506.800,0.803844
506.900,0.803813
507.000,0.803786
507.100,0.803758
507.200,0.803730
507.300,0.803700
507.400,0.803673
507.500,0.803646
507.600,0.803620
507.700,0.803593
507.800,0.803564
507.900,0.803538
508.000,0.803511
508.100,0.803485
508.200,0.803456
508.300,0.803429
508.400,0.803402
508.500,0.803375
508.600,0.803348
508.700,0.803319
508.800,0.803292
508.900,0.803265
509.000,0.803238
509.100,0.803210
509.200,0.803184
509.300,0.803159
509.400,0.803133
509.500,0.803107
509.600,0.803079
509.700,0.803053
509.800,0.803028
509.900,0.803002
510.000,0.802976
510.100,0.802947
510.200,0.802920
510.300,0.802894
510.400,0.802868
510.500,0.802839
510.600,0.802813
510.700,0.802789
510.800,0.802764
510.900,0.802739
511.000,0.802711
511.100,0.802686
511.200,0.802661
511.300,0.802636
511.400,0.802608
511.500,0.802583
511.600,0.802558
511.700,0.802532
511.800,0.802507
511.900,0.802479
512.000,0.802453
512.100,0.802428
512.200,0.802403
512.300,0.802376
512.400,0.802351
512.500,0.802327
512.600,0.802303
512.700,0.802278
512.800,0.802251
512.900,0.802227
513.000,0.802202
513.100,0.802177
513.200,0.802150
513.300,0.802125
513.400,0.802100
513.500,0.802075
513.600,0.802050
513.700,0.802022
513.800,0.801998
513.900,0.801974
514.000,0.801951
514.100,0.801924
514.200,0.801900
514.300,0.801877
514.400,0.801853
514.500,0.801829
514.600,0.801802
514.700,0.801778
514.800,0.801753
514.900,0.801729
515.000,0.801702
515.100,0.801678
515.200,0.801653
515.300,0.801629
515.400,0.801605
515.500,0.801579
515.600,0.801556
515.700,0.801533
515.800,0.801510
515.900,0.801483
516.000,0.801460
516.100,0.801436
516.200,0.801413
516.300,0.801389
516.400,0.801362
516.500,0.801338
516.600,0.801315
516.700,0.801291
516.800,0.801267
516.900,0.801240
517.000,0.801217
517.100,0.801194
517.200,0.801171
517.300,0.801145
517.400,0.801123
517.500,0.801100
517.600,0.801076
517.700,0.801053
517.800,0.801027
517.900,0.801004
518.000,0.800980
518.100,0.800957
518.200,0.800931
518.300,0.800907
518.400,0.800883
518.500,0.800859
518.600,0.800837
518.700,0.800812
518.800,0.800789
518.900,0.800766
519.000,0.800744
519.100,0.800718
519.200,0.800695
519.300,0.800672
519.400,0.800649
519.500,0.800626
519.600,0.800600
519.700,0.800577
519.800,0.800554
519.900,0.800530
520.000,0.800504
520.100,0.800481
520.200,0.800458
520.300,0.800436
520.400,0.800414
520.500,0.800388
520.600,0.800366
520.700,0.800343
520.800,0.800320
520.900,0.800295
521.000,0.800272
521.100,0.800249
521.200,0.800226
521.300,0.800203
521.400,0.800177
521.500,0.800154
521.600,0.800130
521.700,0.800107
521.800,0.800082
521.900,0.800060
522.000,0.800038
522.100,0.800015
522.200,0.799993
522.300,0.799967
522.400,0.799945
522.500,0.799922
522.600,0.799899
522.700,0.799873
522.800,0.799851
522.900,0.799828
523.000,0.799805
523.100,0.799781
523.200,0.799756
523.300,0.799732
523.400,0.799710
523.500,0.799688
523.600,0.799665
523.700,0.799640
523.800,0.799617
523.900,0.799594
524.000,0.799572
524.100,0.799546
524.200,0.799523
524.300,0.799500
524.400,0.799477
524.500,0.799454
524.600,0.799428
524.700,0.799405
524.800,0.799382
524.900,0.799359
525.000,0.799333
525.100,0.799311
525.200,0.799288
525.300,0.799265
525.400,0.799242
525.500,0.799217
525.600,0.799194
525.700,0.799171
525.800,0.799148
525.900,0.799122
526.000,0.799099
526.100,0.799076
526.200,0.799052
526.300,0.799026
526.400,0.799003
526.500,0.798979
526.600,0.798957
526.700,0.798931
526.800,0.798908
526.900,0.798885
527.000,0.798862
527.100,0.798836
527.200,0.798813
527.300,0.798790
527.400,0.798766
527.500,0.798741
527.600,0.798717
527.700,0.798694
527.800,0.798670
527.900,0.798644
528.000,0.798620
528.100,0.798597
528.200,0.798573
528.300,0.798548
528.400,0.798524
528.500,0.798501
528.600,0.798478
528.700,0.798451
528.800,0.798427
528.900,0.798404
529.000,0.798380
529.100,0.798354
529.200,0.798330
529.300,0.798306
529.400,0.798283
529.500,0.798256
529.600,0.798231
529.700,0.798208
529.800,0.798184
529.900,0.798157
530.000,0.798134
530.100,0.798110
530.200,0.798086
530.300,0.798059
530.400,0.798035
530.500,0.798011
530.600,0.797987
530.700,0.797959
530.800,0.797935
530.900,0.797911
531.000,0.797887
531.100,0.797859
531.200,0.797835
531.300,0.797810
531.400,0.797783
531.500,0.797759
531.600,0.797734
531.700,0.797710
531.800,0.797683
531.900,0.797658
532.000,0.797634
532.100,0.797609
532.200,0.797581
532.300,0.797557
532.400,0.797532
532.500,0.797507
532.600,0.797479
532.700,0.797454
532.800,0.797430
532.900,0.797405
533.000,0.797376
533.100,0.797351
533.200,0.797326
533.300,0.797301
533.400,0.797273
533.500,0.797247
533.600,0.797222
533.700,0.797197
533.800,0.797168
533.900,0.797142
534.000,0.797117
534.100,0.797092
534.200,0.797063
534.300,0.797037
534.400,0.797011
534.500,0.796986
534.600,0.796956
534.700,0.796930
534.800,0.796905
534.900,0.796879
535.000,0.796850
535.100,0.796823
535.200,0.796797
535.300,0.796771
535.400,0.796742
535.500,0.796715
535.600,0.796689
535.700,0.796662
535.800,0.796633
535.900,0.796606
536.000,0.796579
536.100,0.796552
536.200,0.796523
536.300,0.796496
536.400,0.796469
536.500,0.796439
536.600,0.796411
536.700,0.796384
536.800,0.796357
536.900,0.796326
537.000,0.796299
537.100,0.796272
537.200,0.796244
537.300,0.796213
537.400,0.796186
537.500,0.796158
537.600,0.796130
537.700,0.796099
537.800,0.796071
537.900,0.796042
538.000,0.796013
538.100,0.795982
538.200,0.795954
538.300,0.795925
538.400,0.795896
538.500,0.795864
538.600,0.795835
538.700,0.795806
538.800,0.795777
538.900,0.795745
539.000,0.795716
539.100,0.795687
539.200,0.795657
539.300,0.795624
539.400,0.795594
539.500,0.795565
539.600,0.795534
539.700,0.795501
539.800,0.795471
539.900,0.795440
540.000,0.795410
540.100,0.795376
540.200,0.795345
540.300,0.795315
540.400,0.795284
540.500,0.795250
540.600,0.795219
540.700,0.795188
540.800,0.795156
540.900,0.795122
541.000,0.795090
541.100,0.795058
541.200,0.795025
541.300,0.794990
541.400,0.794957
541.500,0.794924
541.600,0.794888
541.700,0.794855
541.800,0.794823
541.900,0.794789
542.000,0.794753
542.100,0.794720
542.200,0.794686
542.300,0.794652
542.400,0.794616
542.500,0.794581
542.600,0.794546
542.700,0.794511
542.800,0.794473
542.900,0.794437
543.000,0.794401
543.100,0.794365
543.200,0.794326
543.300,0.794290
543.400,0.794254
543.500,0.794217
543.600,0.794177
543.700,0.794141
543.800,0.794104
543.900,0.794067
544.000,0.794027
544.100,0.793989
544.200,0.793950
544.300,0.793912
544.400,0.793869
544.500,0.793829
544.600,0.793790
544.700,0.793750
544.800,0.793706
544.900,0.793666
545.000,0.793625
545.100,0.793585
545.200,0.793540
545.300,0.793500
545.400,0.793459
545.500,0.793418
545.600,0.793373
545.700,0.793331
545.800,0.793288
545.900,0.793245
546.000,0.793198
546.100,0.793153
546.200,0.793109
546.300,0.793064
546.400,0.793016
546.500,0.792971
546.600,0.792925
546.700,0.792880
546.800,0.792834
546.900,0.792788
547.000,0.792742
547.100,0.792696
547.200,0.792646
547.300,0.792597
547.400,0.792550
547.500,0.792501
547.600,0.792451
547.700,0.792400
547.800,0.792350
547.900,0.792300
548.000,0.792248
548.100,0.792198
548.200,0.792145
548.300,0.792094
548.400,0.792042
548.500,0.791990
548.600,0.791934
548.700,0.791881
548.800,0.791829
548.900,0.791774
549.000,0.791720
549.100,0.791664
549.200,0.791608
549.300,0.791550
549.400,0.791492
549.500,0.791435
549.600,0.791376
549.700,0.791318
549.800,0.791259
549.900,0.791197
550.000,0.791138
550.100,0.791078
550.200,0.791019
550.300,0.790957
550.400,0.790897
550.500,0.790835
550.600,0.790773
550.700,0.790710
550.800,0.790644
550.900,0.790579
551.000,0.790512
551.100,0.790446
551.200,0.790375
551.300,0.790307
551.400,0.790240
551.500,0.790172
551.600,0.790104
551.700,0.790035
551.800,0.789965
551.900,0.789896
552.000,0.789826
552.100,0.789755
552.200,0.789683
552.300,0.789610
552.400,0.789534
552.500,0.789458
552.600,0.789379
552.700,0.789302
552.800,0.789225
552.900,0.789147
553.000,0.789069
553.100,0.788991
553.200,0.788911
553.300,0.788831
553.400,0.788752
553.500,0.788671
553.600,0.788589
553.700,0.788507
553.800,0.788424
553.900,0.788335
554.000,0.788249
554.100,0.788161
554.200,0.788071
554.300,0.787983
554.400,0.787894
554.500,0.787804
554.600,0.787713
554.700,0.787623
554.800,0.787531
554.900,0.787437
555.000,0.787345
555.100,0.787251
555.200,0.787154
555.300,0.787059
555.400,0.786962
555.500,0.786862
555.600,0.786762
555.700,0.786661
555.800,0.786559
555.900,0.786455
556.000,0.786352
556.100,0.786248
556.200,0.786143
556.300,0.786037
556.400,0.785931
556.500,0.785824
556.600,0.785713
556.700,0.785605
556.800,0.785495
556.900,0.785386
557.000,0.785275
557.100,0.785159
557.200,0.785043
557.300,0.784927
557.400,0.784810
557.500,0.784691
557.600,0.784572
557.700,0.784452
557.800,0.784331
557.900,0.784208
558.000,0.784085
558.100,0.783960
558.200,0.783836
558.300,0.783713
558.400,0.783587
558.500,0.783461
558.600,0.783332
558.700,0.783202
558.800,0.783069
558.900,0.782937
559.000,0.782802
559.100,0.782667
559.200,0.782527
559.300,0.782391
559.400,0.782253
559.500,0.782115
559.600,0.781974
559.700,0.781835
559.800,0.781693
559.900,0.781552
560.000,0.781409
560.100,0.781265
560.200,0.781119
560.300,0.780971
560.400,0.780822
560.500,0.780671
560.600,0.780517
560.700,0.780365
560.800,0.780212
560.900,0.780059
561.000,0.779903
561.100,0.779746
561.200,0.779589
561.300,0.779431
561.400,0.779273
561.500,0.779113
561.600,0.778953
561.700,0.778792
561.800,0.778630
561.900,0.778464
562.000,0.778298
562.100,0.778130
562.200,0.777964
562.300,0.777796
562.400,0.777628
562.500,0.777457
562.600,0.777286
562.700,0.777115
562.800,0.776940
562.900,0.776767
563.000,0.776592
563.100,0.776417
563.200,0.776237
563.300,0.776061
563.400,0.775885
563.500,0.775706
563.600,0.775527
563.700,0.775348
563.800,0.775166
563.900,0.774985
564.000,0.774803
564.100,0.774618
564.200,0.774435
564.300,0.774250
564.400,0.774065
564.500,0.773876
564.600,0.773686
564.700,0.773498
564.800,0.773311
564.900,0.773123
565.000,0.772936
565.100,0.772748
565.200,0.772561
565.300,0.772372
565.400,0.772185
565.500,0.771995
565.600,0.771804
565.700,0.771613
565.800,0.771421
565.900,0.771228
566.000,0.771035
566.100,0.770840
566.200,0.770648
566.300,0.770453
566.400,0.770262
566.500,0.770066
566.600,0.769875
566.700,0.769687
566.800,0.769499
566.900,0.769310
567.000,0.769121
567.100,0.768931
567.200,0.768741
567.300,0.768550
567.400,0.768358
567.500,0.768167
567.600,0.767975
567.700,0.767784
567.800,0.767592
567.900,0.767403
568.000,0.767215
568.100,0.767028
568.200,0.766845
568.300,0.766665
568.400,0.766485
568.500,0.766307
568.600,0.766127
568.700,0.765947
568.800,0.765768
568.900,0.765589
569.000,0.765410
569.100,0.765226
569.200,0.765047
569.300,0.764869
569.400,0.764693
569.500,0.764517
569.600,0.764343
569.700,0.764174
569.800,0.764012
569.900,0.763852
570.000,0.763695
570.100,0.763535
570.200,0.763380
570.300,0.763221
570.400,0.763065
570.500,0.762912
570.600,0.762755
570.700,0.762602
570.800,0.762448
570.900,0.762295
571.000,0.762145
571.100,0.761997
571.200,0.761854
571.300,0.761714
571.400,0.761584
571.500,0.761460
571.600,0.761332
571.700,0.761208
571.800,0.761086
571.900,0.760965
572.000,0.760842
572.100,0.760727
572.200,0.760608
572.300,0.760491
572.400,0.760380
572.500,0.760263
572.600,0.760153
572.700,0.760047
572.800,0.759946
572.900,0.759851
573.000,0.759761
573.100,0.759682
573.200,0.759606
573.300,0.759524
573.400,0.759451
573.500,0.759377
573.600,0.759302
573.700,0.759232
573.800,0.759159
573.900,0.759093
574.000,0.759031
574.100,0.758962
574.200,0.758899
574.300,0.758844
574.400,0.758794
574.500,0.758750
574.600,0.758713
574.700,0.758688
574.800,0.758663
574.900,0.758636
575.000,0.758615
575.100,0.758593
575.200,0.758572
575.300,0.758556
575.400,0.758538
575.500,0.758525
575.600,0.758517
575.700,0.758504
575.800,0.758498
575.900,0.758505
576.000,0.758507
576.100,0.758524
576.200,0.758541
576.300,0.758568
576.400,0.758600
576.500,0.758624
576.600,0.758658
576.700,0.758691
576.800,0.758719
576.900,0.758763
577.000,0.758796
577.100,0.758840
577.200,0.758888
577.300,0.758928
577.400,0.758977
577.500,0.759041
577.600,0.759096
577.700,0.759167
577.800,0.759243
577.900,0.759313
578.000,0.759392
578.100,0.759467
578.200,0.759550
578.300,0.759638
578.400,0.759714
578.500,0.759808
578.600,0.759897
578.700,0.759983
578.800,0.760077
578.900,0.760168
579.000,0.760265
579.100,0.760375
579.200,0.760476
579.300,0.760590
579.400,0.760708
579.500,0.760817
579.600,0.760941
579.700,0.761060
579.800,0.761175
579.900,0.761304
580.000,0.761420
580.100,0.761551
580.200,0.761680
580.300,0.761804
580.400,0.761937
580.500,0.762074
580.600,0.762202
580.700,0.762345
580.800,0.762493
580.900,0.762626
581.000,0.762771
581.100,0.762909
581.200,0.763058
581.300,0.763210
581.400,0.763349
581.500,0.763504
581.600,0.763656
581.700,0.763799
581.800,0.763953
581.900,0.764110
582.000,0.764257
582.100,0.764415
582.200,0.764566
582.300,0.764730
582.400,0.764897
582.500,0.765047
582.600,0.765210
582.700,0.765370
582.800,0.765521
582.900,0.765685
583.000,0.765847
583.100,0.766003
583.200,0.766166
583.300,0.766333
583.400,0.766489
583.500,0.766657
583.600,0.766815
583.700,0.766985
583.800,0.767154
583.900,0.767314
584.000,0.767485
584.100,0.767646
584.200,0.767798
584.300,0.767958
584.400,0.768119
584.500,0.768267
584.600,0.768431
584.700,0.768596
584.800,0.768747
584.900,0.768910
585.000,0.769065
585.100,0.769229
585.200,0.769397
585.300,0.769549
585.400,0.769716
585.500,0.769877
585.600,0.770025
585.700,0.770176
585.800,0.770326
585.900,0.770462
586.000,0.770612
586.100,0.770761
586.200,0.770900
586.300,0.771053
586.400,0.771192
586.500,0.771338
586.600,0.771491
586.700,0.771629
586.800,0.771782
586.900,0.771932
587.000,0.772074
587.100,0.772205
587.200,0.772343
587.300,0.772450
587.400,0.772576
587.500,0.772696
587.600,0.772808
587.700,0.772929
587.800,0.773055
587.900,0.773163
588.000,0.773288
588.100,0.773400
588.200,0.773522
588.300,0.773642
588.400,0.773754
588.500,0.773878
588.600,0.773998
588.700,0.774087
588.800,0.774188
588.900,0.774279
589.000,0.774352
589.100,0.774441
589.200,0.774532
589.300,0.774610
589.400,0.774701
589.500,0.774791
589.600,0.774869
589.700,0.774959
589.800,0.775051
589.900,0.775127
590.000,0.775216
590.100,0.775294
590.200,0.775379
590.300,0.775451
590.400,0.775513
590.500,0.775576
590.600,0.775638
590.700,0.775689
590.800,0.775753
590.900,0.775817
591.000,0.775867
591.100,0.775931
591.200,0.775993
591.300,0.776047
591.400,0.776110
591.500,0.776175
591.600,0.776224
591.700,0.776292
591.800,0.776345
591.900,0.776383
592.000,0.776429
592.100,0.776469
592.200,0.776496
592.300,0.776533
592.400,0.776576
592.500,0.776600
592.600,0.776645
592.700,0.776669
592.800,0.776713
592.900,0.776750
593.000,0.776780
593.100,0.776819
593.200,0.776863
593.300,0.776892
593.400,0.776928
593.500,0.776953
593.600,0.776961
593.700,0.776977
593.800,0.777002
593.900,0.777007
594.000,0.777029
594.100,0.777046
594.200,0.777057
594.300,0.777076
594.400,0.777098
594.500,0.777102
594.600,0.777127
594.700,0.777147
594.800,0.777155
594.900,0.777177
595.000,0.777191
595.100,0.777181
595.200,0.777191
595.300,0.777189
595.400,0.777181
595.500,0.777182
595.600,0.777185
595.700,0.777178
595.800,0.777181
595.900,0.777187
596.000,0.777176
596.100,0.777184
596.200,0.777187
596.300,0.777178
596.400,0.777182
596.500,0.777190
596.600,0.777172
596.700,0.777161
596.800,0.777152
596.900,0.777128
597.000,0.777119
597.100,0.777092
597.200,0.777084
597.300,0.777075
597.400,0.777050
597.500,0.777041
597.600,0.777033
597.700,0.777011
597.800,0.777003
597.900,0.776994
598.000,0.776971
598.100,0.776963
598.200,0.776946
598.300,0.776909
598.400,0.776887
598.500,0.776869
598.600,0.776836
598.700,0.776816
598.800,0.776799
598.900,0.776760
599.000,0.776744
599.100,0.776723
599.200,0.776691
599.300,0.776670
599.400,0.776654
599.500,0.776622
599.600,0.776606
599.700,0.776586
599.800,0.776546
599.900,0.776511
600.000,0.776485
600.100,0.776443
600.200,0.776419
600.300,0.776391
600.400,0.776357
600.500,0.776330
600.600,0.776305
600.700,0.776262
600.800,0.776239
600.900,0.776215
601.000,0.776175
601.100,0.776151
601.200,0.776129
601.300,0.776087
601.400,0.776060
601.500,0.776019
601.600,0.775977
601.700,0.775947
601.800,0.775923
601.900,0.775882
602.000,0.775851
602.100,0.775829
602.200,0.775784
602.300,0.775762
602.400,0.775731
602.500,0.775692
602.600,0.775668
602.700,0.775645
602.800,0.775603
602.900,0.775578
603.000,0.775549
603.100,0.775514
603.200,0.775473
603.300,0.775454
603.400,0.775433
603.500,0.775396
603.600,0.775371
603.700,0.775354
603.800,0.775315
603.900,0.775301
604.000,0.775282
604.100,0.775241
604.200,0.775222
604.300,0.775208
604.400,0.775171
604.500,0.775158
604.600,0.775133
604.700,0.775091
604.800,0.775081
604.900,0.775074
605.000,0.775044
605.100,0.775039
605.200,0.775031
605.300,0.775004
605.400,0.774997
605.500,0.774991
605.600,0.774972
605.700,0.774967
605.800,0.774963
605.900,0.774937
606.000,0.774938
606.100,0.774939
606.200,0.774913
606.300,0.774912
606.400,0.774930
606.500,0.774922
606.600,0.774935
606.700,0.774952
606.800,0.774951
606.900,0.774968
607.000,0.774992
607.100,0.774985
607.200,0.775010
607.300,0.775033
607.400,0.775059
607.500,0.775057
607.600,0.775085
607.700,0.775110
607.800,0.775120
607.900,0.775158
608.000,0.775209
608.100,0.775236
608.200,0.775292
608.300,0.775345
608.400,0.775380
608.500,0.775437
608.600,0.775494
608.700,0.775531
608.800,0.775591
608.900,0.775652
609.000,0.775692
609.100,0.775758
609.200,0.775827
609.300,0.775870
609.400,0.775956
609.500,0.776047
609.600,0.776128
609.700,0.776236
609.800,0.776340
609.900,0.776428
610.000,0.776532
610.100,0.776650
610.200,0.776761
610.300,0.776860
610.400,0.776978
610.500,0.777104
610.600,0.777199
610.700,0.777332
610.800,0.777457
610.900,0.777565
611.000,0.777726
611.100,0.777890
611.200,0.778048
611.300,0.778225
611.400,0.778412
611.500,0.778569
611.600,0.778759
611.700,0.778953
611.800,0.779122
611.900,0.779320
612.000,0.779522
612.100,0.779728
612.200,0.779912
612.300,0.780119
612.400,0.780340
612.500,0.780533
612.600,0.780792
612.700,0.781066
612.800,0.781321
612.900,0.781598
613.000,0.781883
613.100,0.782154
613.200,0.782447
613.300,0.782749
613.400,0.783021
613.500,0.783328
613.600,0.783643
613.700,0.783933
613.800,0.784250
613.900,0.784573
614.000,0.784909
614.100,0.785217
614.200,0.785608
614.300,0.786004
614.400,0.786380
614.500,0.786790
614.600,0.787200
614.700,0.787588
614.800,0.788008
614.900,0.788444
615.000,0.788844
615.100,0.789283
615.200,0.789722
615.300,0.790142
615.400,0.790595
615.500,0.791051
615.600,0.791521
615.700,0.791970
615.800,0.792504
615.900,0.793049
616.000,0.793569
616.100,0.794122
616.200,0.794682
616.300,0.795218
616.400,0.795790
616.500,0.796372
616.600,0.796916
616.700,0.797504
616.800,0.798098
616.900,0.798666
617.000,0.799273
617.100,0.799872
617.200,0.800492
617.300,0.801103
617.400,0.801801
617.500,0.802496
617.600,0.803174
617.700,0.803882
617.800,0.804593
617.900,0.805292
618.000,0.806014
618.100,0.806751
618.200,0.807452
618.300,0.808195
618.400,0.808942
618.500,0.809696
618.600,0.810422
618.700,0.811188
618.800,0.811952
618.900,0.812723
619.000,0.813557
619.100,0.814403
619.200,0.815220
619.300,0.816074
619.400,0.816923
619.500,0.817758
619.600,0.818619
619.700,0.819486
619.800,0.820356
619.900,0.821202
620.000,0.822085
620.100,0.822963
620.200,0.823823
620.300,0.824714
620.400,0.825606
620.500,0.826502
620.600,0.827458
620.700,0.828411
620.800,0.829337
620.900,0.830301
621.000,0.831257
621.100,0.832222
621.200,0.833153
621.300,0.834125
621.400,0.835098
621.500,0.836035
621.600,0.837018
621.700,0.837986
621.800,0.838938
621.900,0.839912
622.000,0.840893
622.100,0.841904
622.200,0.842880
622.300,0.843894
622.400,0.844895
622.500,0.845884
622.600,0.846889
622.700,0.847897
622.800,0.848875
622.900,0.849881
623.000,0.850892
623.100,0.851899
623.200,0.852884
623.300,0.853885
623.400,0.854890
623.500,0.855869
623.600,0.856874
623.700,0.857891
623.800,0.858867
623.900,0.859872
624.000,0.860871
624.100,0.861869
624.200,0.862839
624.300,0.863823
624.400,0.864824
624.500,0.865785
624.600,0.866776
624.700,0.867756
624.800,0.868714
624.900,0.869689
625.000,0.870664
625.100,0.871617
625.200,0.872584
625.300,0.873550
625.400,0.874487
625.500,0.875409
625.600,0.876338
625.700,0.877276
625.800,0.878180
625.900,0.879101
626.000,0.880018
626.100,0.880933
626.200,0.881824
626.300,0.882730
626.400,0.883634
626.500,0.884512
626.600,0.885411
626.700,0.886299
626.800,0.887165
626.900,0.888028
627.000,0.888856
627.100,0.889684
627.200,0.890487
627.300,0.891298
627.400,0.892114
627.500,0.892904
627.600,0.893707
627.700,0.894505
627.800,0.895285
627.900,0.896075
628.000,0.896860
628.100,0.897643
628.200,0.898394
628.300,0.899165
628.400,0.899938
628.500,0.900646
628.600,0.901340
628.700,0.902034
628.800,0.902711
628.900,0.903390
629.000,0.904070
629.100,0.904741
629.200,0.905402
629.300,0.906060
629.400,0.906724
629.500,0.907361
629.600,0.908016
629.700,0.908669
629.800,0.909303
629.900,0.909931
630.000,0.910566
630.100,0.911140
630.200,0.911680
630.300,0.912226
630.400,0.912776
630.500,0.913311
630.600,0.913835
630.700,0.914370
630.800,0.914896
630.900,0.915412
631.000,0.915926
631.100,0.916449
631.200,0.916943
631.300,0.917452
631.400,0.917961
631.500,0.918460
631.600,0.918949
631.700,0.919371
631.800,0.919785
631.900,0.920181
632.000,0.920588
632.100,0.920989
632.200,0.921391
632.300,0.921772
632.400,0.922167
632.500,0.922555
632.600,0.922931
632.700,0.923310
632.800,0.923689
632.900,0.924070
633.000,0.924433
633.100,0.924801
633.200,0.925169
633.300,0.925446
633.400,0.925728
633.500,0.926001
633.600,0.926273
633.700,0.926546
633.800,0.926820
633.900,0.927084
634.000,0.927337
634.100,0.927604
634.200,0.927866
634.300,0.928117
634.400,0.928372
634.500,0.928631
634.600,0.928873
634.700,0.929115
634.800,0.929357
634.900,0.929526
635.000,0.929683
635.100,0.929847
635.200,0.930008
635.300,0.930161
635.400,0.930313
635.500,0.930466
635.600,0.930620
635.700,0.930766
635.800,0.930910
635.900,0.931059
636.000,0.931207
636.100,0.931346
636.200,0.931489
636.300,0.931626
636.400,0.931749
636.500,0.931809
636.600,0.931872
636.700,0.931931
636.800,0.931980
636.900,0.932037
637.000,0.932089
637.100,0.932138
637.200,0.932192
637.300,0.932242
637.400,0.932292
637.500,0.932335
637.600,0.932381
637.700,0.932427
637.800,0.932466
637.900,0.932512
638.000,0.932538
638.100,0.932506
638.200,0.932468
638.300,0.932434
638.400,0.932404
638.500,0.932363
638.600,0.932326
638.700,0.932293
638.800,0.932254
638.900,0.932211
639.000,0.932176
639.100,0.932135
639.200,0.932090
639.300,0.932050
639.400,0.932009
639.500,0.931965
639.600,0.931904
639.700,0.931789
639.800,0.931677
639.900,0.931559
640.000,0.931442
640.100,0.931328
640.200,0.931214
640.300,0.931097
640.400,0.930982
640.500,0.930868
640.600,0.930747
640.700,0.930629
640.800,0.930512
640.900,0.930396
641.000,0.930272
641.100,0.930159
641.200,0.930016
641.300,0.929832
641.400,0.929648
641.500,0.929463
641.600,0.929279
641.700,0.929095
641.800,0.928911
641.900,0.928724
642.000,0.928546
642.100,0.928358
642.200,0.928173
642.300,0.927994
642.400,0.927805
642.500,0.927622
642.600,0.927439
642.700,0.927256
642.800,0.927047
642.900,0.926811
643.000,0.926574
643.100,0.926334
643.200,0.926099
643.300,0.925867
643.400,0.925631
643.500,0.925393
643.600,0.925159
643.700,0.924925
643.800,0.924691
643.900,0.924454
644.000,0.924223
644.100,0.923991
644.200,0.923754
644.300,0.923522
644.400,0.923275
644.500,0.923005
644.600,0.922734
644.700,0.922470
644.800,0.922202
644.900,0.921935
645.000,0.921672
645.100,0.921402
645.200,0.921140
645.300,0.920875
645.400,0.920611
645.500,0.920350
645.600,0.920090
645.700,0.919825
645.800,0.919562
645.900,0.919301
646.000,0.919024
646.100,0.918740
646.200,0.918455
646.300,0.918171
646.400,0.917883
646.500,0.917601
646.600,0.917319
646.700,0.917034
646.800,0.916750
646.900,0.916473
647.000,0.916194
647.100,0.915909
647.200,0.915631
647.300,0.915357
647.400,0.915081
647.500,0.914798
647.600,0.914514
647.700,0.914227
647.800,0.913937
647.900,0.913652
648.000,0.913367
648.100,0.913083
648.200,0.912793
648.300,0.912510
648.400,0.912228
648.500,0.911942
648.600,0.911659
648.700,0.911379
648.800,0.911099
648.900,0.910818
649.000,0.910539
649.100,0.910262
649.200,0.909985
649.300,0.909712
649.400,0.909442
649.500,0.909171
649.600,0.908902
649.700,0.908632
649.800,0.908362
649.900,0.908095
650.000,0.907826
650.100,0.907559
650.200,0.907294
650.300,0.907030
650.400,0.906755
650.500,0.906493
650.600,0.906230
650.700,0.905966
650.800,0.905724
650.900,0.905492
651.000,0.905258
651.100,0.905027
651.200,0.904794
651.300,0.904559
651.400,0.904330
651.500,0.904096
651.600,0.903868
651.700,0.903634
651.800,0.903406
651.900,0.903173
652.000,0.902942
652.100,0.902714
652.200,0.902487
652.300,0.902251
652.400,0.902073
652.500,0.901905
652.600,0.901733
652.700,0.901563
652.800,0.901394
652.900,0.901223
653.000,0.901052
653.100,0.900879
653.200,0.900710
653.300,0.900540
653.400,0.900367
653.500,0.900199
653.600,0.900025
653.700,0.899857
653.800,0.899681
653.900,0.899511
654.000,0.899415
654.100,0.899328
654.200,0.899242
654.300,0.899158
654.400,0.899073
654.500,0.898983
654.600,0.898899
654.700,0.898814
654.800,0.898726
654.900,0.898638
655.000,0.898550
655.100,0.898462
655.200,0.898373
655.300,0.898282
655.400,0.898193
655.500,0.898103
655.600,0.898113
655.700,0.898139
655.800,0.898163
655.900,0.898188
656.000,0.898204
656.100,0.898229
656.200,0.898248
656.300,0.898271
656.400,0.898288
656.500,0.898308
656.600,0.898330
656.700,0.898348
656.800,0.898366
656.900,0.898384
657.000,0.898404
657.100,0.898415
657.200,0.898564
657.300,0.898714
657.400,0.898859
657.500,0.899005
657.600,0.899154
657.700,0.899305
657.800,0.899450
657.900,0.899595
658.000,0.899745
658.100,0.899897
658.200,0.900047
658.300,0.900187
658.400,0.900337
658.500,0.900487
658.600,0.900636
658.700,0.900790
658.800,0.901067
658.900,0.901348
659.000,0.901622
659.100,0.901902
659.200,0.902184
659.300,0.902465
659.400,0.902741
659.500,0.903025
659.600,0.903309
659.700,0.903594
659.800,0.903878
659.900,0.904167
660.000,0.904454
660.100,0.904742
660.200,0.905025
660.300,0.905325
660.400,0.905728
660.500,0.906130
660.600,0.906530
660.700,0.906935
660.800,0.907343
660.900,0.907745
661.000,0.908157
661.100,0.908569
661.200,0.908984
661.300,0.909391
661.400,0.909804
661.500,0.910223
661.600,0.910640
661.700,0.911057
661.800,0.911475
661.900,0.911915
662.000,0.912413
662.100,0.912905
662.200,0.913404
662.300,0.913902
662.400,0.914405
662.500,0.914903
662.600,0.915411
662.700,0.915917
662.800,0.916430
662.900,0.916934
663.000,0.917442
663.100,0.917956
663.200,0.918471
663.300,0.918981
663.400,0.919500
663.500,0.920026
663.600,0.920571
663.700,0.921124
663.800,0.921679
663.900,0.922234
664.000,0.922785
664.100,0.923341
664.200,0.923902
664.300,0.924458
664.400,0.925015
664.500,0.925575
664.600,0.926140
664.700,0.926702
664.800,0.927264
664.900,0.927833
665.000,0.928400
665.100,0.928968
665.200,0.929522
665.300,0.930088
665.400,0.930653
665.500,0.931219
665.600,0.931780
665.700,0.932342
665.800,0.932910
665.900,0.933478
666.000,0.934043
666.100,0.934610
666.200,0.935177
666.300,0.935747
666.400,0.936313
666.500,0.936883
666.600,0.937454
666.700,0.938009
666.800,0.938542
666.900,0.939074
667.000,0.939612
667.100,0.940143
667.200,0.940676
667.300,0.941209
667.400,0.941745
667.500,0.942273
667.600,0.942811
667.700,0.943342
667.800,0.943880
667.900,0.944412
668.000,0.944944
668.100,0.945482
668.200,0.946012
668.300,0.946520
668.400,0.947009
668.500,0.947494
668.600,0.947978
668.700,0.948457
668.800,0.948940
668.900,0.949423
669.000,0.949910
669.100,0.950389
669.200,0.950870
669.300,0.951351
669.400,0.951832
669.500,0.952314
669.600,0.952794
669.700,0.953277
669.800,0.953755
669.900,0.954203
670.000,0.954624
670.100,0.955046
670.200,0.955472
670.300,0.955888
670.400,0.956313
670.500,0.956731
670.600,0.957150
670.700,0.957570
670.800,0.957987
670.900,0.958409
671.000,0.958825
671.100,0.959238
671.200,0.959658
671.300,0.960072
671.400,0.960486
671.500,0.960869
671.600,0.961226
671.700,0.961590
671.800,0.961948
671.900,0.962307
672.000,0.962664
672.100,0.963019
672.200,0.963380
672.300,0.963733
672.400,0.964091
672.500,0.964445
672.600,0.964798
672.700,0.965153
672.800,0.965506
672.900,0.965861
673.000,0.966212
673.100,0.966531
673.200,0.966830
673.300,0.967134
673.400,0.967432
673.500,0.967734
673.600,0.968036
673.700,0.968332
673.800,0.968634
673.900,0.968927
674.000,0.969228
674.100,0.969528
674.200,0.969822
674.300,0.970120
674.400,0.970413
674.500,0.970710
674.600,0.971008
674.700,0.971268
674.800,0.971518
674.900,0.971769
675.000,0.972023
675.100,0.972272
675.200,0.972521
675.300,0.972769
675.400,0.973022
675.500,0.973268
675.600,0.973515
675.700,0.973762
675.800,0.974013
675.900,0.974259
676.000,0.974503
676.100,0.974749
676.200,0.974999
676.300,0.975211
676.400,0.975420
676.500,0.975628
676.600,0.975835
676.700,0.976041
676.800,0.976247
676.900,0.976454
677.000,0.976660
677.100,0.976865
677.200,0.977070
677.300,0.977274
677.400,0.977479
677.500,0.977684
677.600,0.977887
677.700,0.978096
677.800,0.978300
677.900,0.978471
678.000,0.978644
678.100,0.978815
678.200,0.978986
678.300,0.979158
678.400,0.979328
678.500,0.979499
678.600,0.979669
678.700,0.979839
678.800,0.980009
678.900,0.980178
679.000,0.980347
679.100,0.980517
679.200,0.980686
679.300,0.980855
679.400,0.981023
679.500,0.981167
679.600,0.981309
679.700,0.981452
679.800,0.981594
679.900,0.981736
680.000,0.981877
680.100,0.982019
680.200,0.982160
680.300,0.982302
680.400,0.982443
680.500,0.982584
680.600,0.982724
680.700,0.982864
680.800,0.983004
680.900,0.983144
681.000,0.983284
681.100,0.983403
681.200,0.983518
681.300,0.983636
681.400,0.983755
681.500,0.983873
681.600,0.983991
681.700,0.984104
681.800,0.984222
681.900,0.984340
682.000,0.984458
682.100,0.984571
682.200,0.984688
682.300,0.984805
682.400,0.984922
682.500,0.985039
682.600,0.985150
682.700,0.985246
682.800,0.985347
682.900,0.985444
683.000,0.985540
683.100,0.985640
683.200,0.985736
683.300,0.985836
683.400,0.985931
683.500,0.986026
683.600,0.986126
683.700,0.986222
683.800,0.986322
683.900,0.986416
684.000,0.986510
684.100,0.986610
684.200,0.986699
684.300,0.986783
684.400,0.986861
684.500,0.986945
684.600,0.987025
684.700,0.987108
684.800,0.987186
684.900,0.987269
685.000,0.987347
685.100,0.987425
685.200,0.987508
685.300,0.987585
685.400,0.987670
685.500,0.987751
685.600,0.987833
685.700,0.987910
685.800,0.987988
685.900,0.988055
686.000,0.988121
686.100,0.988188
686.200,0.988255
686.300,0.988322
686.400,0.988389
686.500,0.988455
686.600,0.988522
686.700,0.988588
686.800,0.988654
686.900,0.988720
687.000,0.988786
687.100,0.988853
687.200,0.988919
687.300,0.988985
687.400,0.989045
687.500,0.989101
687.600,0.989156
687.700,0.989211
687.800,0.989266
687.900,0.989321
688.000,0.989377
688.100,0.989432
688.200,0.989487
688.300,0.989542
688.400,0.989597
688.500,0.989651
688.600,0.989706
688.700,0.989761
688.800,0.989816
688.900,0.989870
689.000,0.989919
689.100,0.989969
689.200,0.990013
689.300,0.990057
689.400,0.990100
689.500,0.990144
689.600,0.990193
689.700,0.990238
689.800,0.990281
689.900,0.990324
690.000,0.990374
690.100,0.990417
690.200,0.990460
690.300,0.990503
690.400,0.990552
690.500,0.990596
690.600,0.990634
690.700,0.990672
690.800,0.990709
690.900,0.990748
691.000,0.990785
691.100,0.990823
691.200,0.990860
691.300,0.990893
691.400,0.990932
691.500,0.990969
691.600,0.991006
691.700,0.991044
691.800,0.991081
691.900,0.991113
692.000,0.991150
692.100,0.991188
692.200,0.991221
692.300,0.991253
692.400,0.991285
692.500,0.991311
692.600,0.991343
692.700,0.991369
692.800,0.991401
692.900,0.991432
693.000,0.991459
693.100,0.991492
693.200,0.991518
693.300,0.991549
693.400,0.991581
693.500,0.991607
693.600,0.991638
693.700,0.991663
693.800,0.991689
693.900,0.991717
694.000,0.991743
694.100,0.991763
694.200,0.991789
694.300,0.991810
694.400,0.991835
694.500,0.991856
694.600,0.991881
694.700,0.991907
694.800,0.991929
694.900,0.991954
695.000,0.991973
695.100,0.992000
695.200,0.992025
695.300,0.992045
695.400,0.992064
695.500,0.992084
695.600,0.992106
695.700,0.992120
695.800,0.992140
695.900,0.992159
696.000,0.992174
696.100,0.992194
696.200,0.992213
696.300,0.992233
696.400,0.992248
696.500,0.992268
696.600,0.992287
696.700,0.992301
696.800,0.992320
696.900,0.992340
697.000,0.992354
697.100,0.992368
697.200,0.992381
697.300,0.992398
697.400,0.992411
697.500,0.992424
697.600,0.992438
697.700,0.992451
697.800,0.992466
697.900,0.992479
698.000,0.992492
698.100,0.992500
698.200,0.992515
698.300,0.992528
698.400,0.992542
698.500,0.992555
698.600,0.992569
698.700,0.992576
698.800,0.992584
698.900,0.992591
699.000,0.992605
699.100,0.992614
699.200,0.992621
699.300,0.992634
699.400,0.992641
699.500,0.992649
699.600,0.992656
699.700,0.992669
699.800,0.992676
699.900,0.992685
700.000,0.992692
700.100,0.992705
700.200,0.992706
700.300,0.992713
700.400,0.992721
700.500,0.992727
700.600,0.992734
700.700,0.992736
700.800,0.992744
700.900,0.992751
701.000,0.992757
701.100,0.992758
701.200,0.992764
701.300,0.992773
701.400,0.992780
701.500,0.992786
701.600,0.992788
701.700,0.992795
701.800,0.992796
701.900,0.992804
702.000,0.992804
702.100,0.992806
702.200,0.992807
702.300,0.992813
702.400,0.992813
702.500,0.992815
702.600,0.992816
702.700,0.992822
702.800,0.992824
702.900,0.992823
703.000,0.992831
703.100,0.992832
703.200,0.992832
703.300,0.992831
703.400,0.992833
703.500,0.992834
703.600,0.992835
703.700,0.992835
703.800,0.992834
703.900,0.992837
704.000,0.992836
704.100,0.992830
704.200,0.992831
704.300,0.992830
704.400,0.992831
704.500,0.992832
704.600,0.992831
704.700,0.992830
704.800,0.992833
704.900,0.992825
705.000,0.992825
705.100,0.992819
705.200,0.992820
705.300,0.992813
705.400,0.992813
705.500,0.992806
705.600,0.992805
705.700,0.992807
705.800,0.992799
705.900,0.992798
706.000,0.992792
706.100,0.992792
706.200,0.992784
706.300,0.992784
706.400,0.992777
706.500,0.992775
706.600,0.992771
706.700,0.992763
706.800,0.992755
706.900,0.992749
707.000,0.992749
707.100,0.992741
707.200,0.992735
707.300,0.992726
707.400,0.992718
707.500,0.992720
707.600,0.992711
707.700,0.992703
707.800,0.992696
707.900,0.992689
708.000,0.992689
708.100,0.992680
708.200,0.992665
708.300,0.992658
708.400,0.992652
708.500,0.992643
708.600,0.992635
708.700,0.992627
708.800,0.992619
708.900,0.992612
709.000,0.992603
709.100,0.992587
709.200,0.992580
709.300,0.992573
709.400,0.992563
709.500,0.992556
709.600,0.992546
709.700,0.992539
709.800,0.992525
709.900,0.992515
710.000,0.992506
710.100,0.992492
710.200,0.992484
710.300,0.992474
710.400,0.992466
710.500,0.992450
710.600,0.992440
710.700,0.992434
710.800,0.992417
710.900,0.992407
711.000,0.992399
711.100,0.992384
711.200,0.992374
711.300,0.992366
711.400,0.992348
711.500,0.992338
711.600,0.992325
711.700,0.992308
711.800,0.992297
711.900,0.992282
712.000,0.992274
712.100,0.992256
712.200,0.992247
712.300,0.992229
712.400,0.992218
712.500,0.992205
712.600,0.992187
712.700,0.992178
712.800,0.992159
712.900,0.992151
713.000,0.992135
713.100,0.992116
713.200,0.992098
713.300,0.992089
713.400,0.992073
713.500,0.992054
713.600,0.992044
713.700,0.992026
713.800,0.992010
713.900,0.991993
714.000,0.991981
714.100,0.991962
714.200,0.991945
714.300,0.991928
714.400,0.991916
714.500,0.991899
714.600,0.991880
714.700,0.991860
714.800,0.991846
714.900,0.991827
715.000,0.991807
715.100,0.991796
715.200,0.991780
715.300,0.991760
715.400,0.991742
715.500,0.991722
715.600,0.991702
715.700,0.991687
715.800,0.991667
715.900,0.991654
716.000,0.991635
716.100,0.991618
716.200,0.991597
716.300,0.991579
716.400,0.991558
716.500,0.991531
716.600,0.991515
716.700,0.991495
716.800,0.991473
716.900,0.991455
717.000,0.991433
717.100,0.991415
717.200,0.991396
717.300,0.991375
717.400,0.991355
717.500,0.991337
717.600,0.991315
717.700,0.991296
717.800,0.991268
717.900,0.991245
718.000,0.991229
718.100,0.991207
718.200,0.991186
718.300,0.991166
718.400,0.991136
718.500,0.991117
718.600,0.991097
718.700,0.991074
718.800,0.991052
718.900,0.991028
719.000,0.991004
719.100,0.990982
719.200,0.990961
719.300,0.990939
719.400,0.990911
719.500,0.990891
719.600,0.990867
719.700,0.990836
719.800,0.990816
719.900,0.990795
720.000,0.990764
720.100,0.990742
720.200,0.990719
720.300,0.990699
720.400,0.990669
720.500,0.990645
720.600,0.990621
720.700,0.990591
720.800,0.990570
720.900,0.990546
721.000,0.990516
721.100,0.990492
721.200,0.990467
721.300,0.990441
721.400,0.990416
721.500,0.990384
721.600,0.990361
721.700,0.990340
721.800,0.990310
721.900,0.990284
722.000,0.990259
722.100,0.990228
722.200,0.990206
722.300,0.990172
722.400,0.990149
722.500,0.990124
722.600,0.990089
722.700,0.990070
722.800,0.990036
722.900,0.990010
723.000,0.989978
723.100,0.989956
723.200,0.989922
723.300,0.989898
723.400,0.989863
723.500,0.989835
723.600,0.989808
723.700,0.989780
723.800,0.989745
723.900,0.989721
724.000,0.989685
724.100,0.989654
724.200,0.989626
724.300,0.989591
724.400,0.989563
724.500,0.989526
724.600,0.989503
724.700,0.989467
724.800,0.989438
724.900,0.989402
725.000,0.989369
725.100,0.989341
725.200,0.989304
725.300,0.989274
725.400,0.989238
725.500,0.989213
725.600,0.989175
725.700,0.989138
725.800,0.989109
725.900,0.989071
726.000,0.989046
726.100,0.989007
726.200,0.988969
726.300,0.988940
726.400,0.988901
726.500,0.988867
726.600,0.988837
726.700,0.988798
726.800,0.988771
726.900,0.988737
727.000,0.988697
727.100,0.988666
727.200,0.988627
727.300,0.988596
727.400,0.988562
727.500,0.988521
727.600,0.988490
727.700,0.988450
727.800,0.988409
727.900,0.988383
728.000,0.988343
728.100,0.988310
728.200,0.988270
728.300,0.988229
728.400,0.988201
728.500,0.988161
728.600,0.988119
728.700,0.988086
728.800,0.988044
728.900,0.988016
729.000,0.987975
729.100,0.987933
729.200,0.987900
729.300,0.987862
729.400,0.987821
729.500,0.987786
729.600,0.987743
729.700,0.987709
729.800,0.987672
729.900,0.987628
730.000,0.987594
730.100,0.987550
730.200,0.987507
730.300,0.987476
730.400,0.987433
730.500,0.987398
730.600,0.987353
730.700,0.987310
730.800,0.987280
730.900,0.987235
731.000,0.987189
731.100,0.987154
731.200,0.987108
731.300,0.987069
731.400,0.987033
731.500,0.986987
731.600,0.986941
731.700,0.986905
731.800,0.986864
731.900,0.986828
732.000,0.986781
732.100,0.986734
732.200,0.986703
732.300,0.986659
732.400,0.986614
732.500,0.986576
732.600,0.986528
732.700,0.986486
732.800,0.986448
732.900,0.986400
733.000,0.986353
733.100,0.986314
733.200,0.986271
733.300,0.986222
733.400,0.986184
733.500,0.986135
733.600,0.986085
733.700,0.986052
733.800,0.986003
733.900,0.985954
734.000,0.985913
734.100,0.985864
734.200,0.985820
734.300,0.985779
734.400,0.985730
734.500,0.985678
734.600,0.985638
734.700,0.985594
734.800,0.985542
734.900,0.985500
735.000,0.985449
735.100,0.985397
735.200,0.985362
735.300,0.985310
735.400,0.985258
735.500,0.985216
735.600,0.985170
735.700,0.985117
735.800,0.985075
735.900,0.985021
736.000,0.984968
736.100,0.984931
736.200,0.984877
736.300,0.984824
736.400,0.984780
736.500,0.984726
736.600,0.984678
736.700,0.984634
736.800,0.984578
736.900,0.984524
737.000,0.984479
737.100,0.984431
737.200,0.984376
737.300,0.984330
737.400,0.984275
737.500,0.984219
737.600,0.984169
737.700,0.984123
737.800,0.984066
737.900,0.984013
738.000,0.983966
738.100,0.983917
738.200,0.983858
738.300,0.983812
738.400,0.983754
738.500,0.983696
738.600,0.983647
738.700,0.983598
738.800,0.983539
738.900,0.983481
739.000,0.983431
739.100,0.983379
739.200,0.983321
739.300,0.983270
739.400,0.983211
739.500,0.983151
739.600,0.983109
739.700,0.983048
739.800,0.982987
739.900,0.982926
740.000,0.982875
740.100,0.982822
740.200,0.982760
740.300,0.982710
740.400,0.982647
740.500,0.982584
740.600,0.982531
740.700,0.982479
740.800,0.982416
740.900,0.982353
741.000,0.982301
741.100,0.982245
741.200,0.982181
741.300,0.982116
741.400,0.982063
741.500,0.981998
741.600,0.981942
741.700,0.981888
741.800,0.981822
741.900,0.981758
742.000,0.981692
742.100,0.981646
742.200,0.981581
742.300,0.981513
742.400,0.981456
742.500,0.981390
742.600,0.981332
742.700,0.981265
742.800,0.981209
742.900,0.981141
743.000,0.981072
743.100,0.981023
743.200,0.980956
743.300,0.980887
743.400,0.980824
743.500,0.980764
743.600,0.980704
743.700,0.980635
743.800,0.980563
743.900,0.980505
744.000,0.980434
744.100,0.980373
744.200,0.980313
744.300,0.980241
744.400,0.980169
744.500,0.980097
744.600,0.980046
744.700,0.979973
744.800,0.979902
744.900,0.979827
745.000,0.979766
745.100,0.979703
745.200,0.979629
745.300,0.979555
745.400,0.979492
745.500,0.979418
745.600,0.979354
745.700,0.979276
745.800,0.979215
745.900,0.979138
746.000,0.979060
746.100,0.978997
746.200,0.978931
746.300,0.978853
746.400,0.978777
746.500,0.978704
746.600,0.978652
746.700,0.978571
746.800,0.978494
746.900,0.978415
747.000,0.978348
747.100,0.978280
747.200,0.978208
747.300,0.978127
747.400,0.978059
747.500,0.977978
747.600,0.977910
747.700,0.977827
747.800,0.977766
747.900,0.977685
748.000,0.977602
748.100,0.977532
748.200,0.977463
748.300,0.977380
748.400,0.977295
748.500,0.977219
748.600,0.977160
748.700,0.977076
748.800,0.976992
748.900,0.976906
749.000,0.976834
749.100,0.976760
749.200,0.976682
749.300,0.976595
749.400,0.976509
749.500,0.976434
749.600,0.976361
749.700,0.976274
749.800,0.976192
749.900,0.976116
750.000,0.976029
750.100,0.975952
750.200,0.975862
750.300,0.975787
750.400,0.975698
750.500,0.975614
750.600,0.975537
750.700,0.975447
750.800,0.975370
750.900,0.975278
751.000,0.975186
751.100,0.975094
751.200,0.975035
751.300,0.974943
751.400,0.974850
751.500,0.974756
751.600,0.974661
751.700,0.974595
751.800,0.974507
751.900,0.974411
752.000,0.974315
752.100,0.974234
752.200,0.974152
752.300,0.974054
752.400,0.973957
752.500,0.973869
752.600,0.973784
752.700,0.973701
752.800,0.973602
752.900,0.973505
753.000,0.973406
753.100,0.973320
753.200,0.973243
753.300,0.973142
753.400,0.973041
753.500,0.972954
753.600,0.972855
753.700,0.972766
753.800,0.972672
753.900,0.972569
754.000,0.972481
754.100,0.972376
754.200,0.972288
754.300,0.972185
754.400,0.972077
754.500,0.971998
754.600,0.971892
754.700,0.971783
754.800,0.971694
754.900,0.971587
755.000,0.971498
755.100,0.971387
755.200,0.971288
755.300,0.971195
755.400,0.971088
755.500,0.970992
755.600,0.970881
755.700,0.970772
755.800,0.970685
755.900,0.970575
756.000,0.970464
756.100,0.970366
756.200,0.970255
756.300,0.970158
756.400,0.970045
756.500,0.969941
756.600,0.969840
756.700,0.969726
756.800,0.969627
756.900,0.969512
757.000,0.969397
757.100,0.969296
757.200,0.969186
757.300,0.969085
757.400,0.968970
757.500,0.968850
757.600,0.968731
757.700,0.968630
757.800,0.968517
757.900,0.968413
758.000,0.968295
758.100,0.968174
758.200,0.968066
758.300,0.967943
758.400,0.967840
758.500,0.967728
758.600,0.967602
758.700,0.967480
758.800,0.967371
758.900,0.967261
759.000,0.967137
759.100,0.967010
759.200,0.966894
759.300,0.966764
759.400,0.966673
759.500,0.966547
759.600,0.966415
759.700,0.966287
759.800,0.966166
759.900,0.966037
760.000,0.965944
760.100,0.965811
760.200,0.965681
760.300,0.965545
760.400,0.965410
760.500,0.965306
760.600,0.965191
760.700,0.965052
760.800,0.964921
760.900,0.964784
761.000,0.964668
761.100,0.964532
761.200,0.964421
761.300,0.964284
761.400,0.964141
761.500,0.964025
761.600,0.963886
761.700,0.963741
761.800,0.963629
761.900,0.963485
762.000,0.963344
762.100,0.963222
762.200,0.963076
762.300,0.962936
762.400,0.962787
762.500,0.962671
762.600,0.962549
762.700,0.962404
762.800,0.962254
762.900,0.962104
763.000,0.961956
763.100,0.961851
763.200,0.961709
763.300,0.961559
763.400,0.961408
763.500,0.961253
763.600,0.961127
763.700,0.960974
763.800,0.960847
763.900,0.960694
764.000,0.960538
764.100,0.960386
764.200,0.960250
764.300,0.960096
764.400,0.959938
764.500,0.959807
764.600,0.959648
764.700,0.959515
764.800,0.959358
764.900,0.959193
765.000,0.959034
765.100,0.958868
765.200,0.958763
765.300,0.958598
765.400,0.958437
765.500,0.958271
765.600,0.958101
765.700,0.957934
765.800,0.957808
765.900,0.957656
766.000,0.957490
766.100,0.957316
766.200,0.957148
766.300,0.957001
766.400,0.956828
766.500,0.956669
766.600,0.956491
766.700,0.956340
766.800,0.956189
766.900,0.956016
767.000,0.955834
767.100,0.955659
767.200,0.955495
767.300,0.955315
767.400,0.955164
767.500,0.955003
767.600,0.954824
767.700,0.954636
767.800,0.954468
767.900,0.954317
768.000,0.954131
768.100,0.953943
768.200,0.953759
768.300,0.953595
768.400,0.953433
768.500,0.953258
768.600,0.953071
768.700,0.952878
768.800,0.952680
768.900,0.952490
769.000,0.952331
769.100,0.952135
769.200,0.951976
769.300,0.951782
769.400,0.951578
769.500,0.951416
769.600,0.951219
769.700,0.951021
769.800,0.950831
769.900,0.950626
770.000,0.950460
770.100,0.950277
770.200,0.950074
770.300,0.949870
770.400,0.949665
770.500,0.949468
770.600,0.949297
770.700,0.949093
770.800,0.948880
770.900,0.948665
771.000,0.948477
771.100,0.948302
771.200,0.948099
771.300,0.947884
771.400,0.947669
771.500,0.947449
771.600,0.947236
771.700,0.947055
771.800,0.946850
771.900,0.946625
772.000,0.946427
772.100,0.946210
772.200,0.946021
772.300,0.945796
772.400,0.945574
772.500,0.945361
772.600,0.945129
772.700,0.944939
772.800,0.944715
772.900,0.944478
773.000,0.944275
773.100,0.944041
773.200,0.943820
773.300,0.943620
773.400,0.943383
773.500,0.943150
773.600,0.942910
773.700,0.942669
773.800,0.942483
773.900,0.942240
774.000,0.941996
774.100,0.941781
774.200,0.941533
774.300,0.941295
774.400,0.941089
774.500,0.940844
774.600,0.940592
774.700,0.940353
774.800,0.940098
774.900,0.939882
775.000,0.939636
775.100,0.939393
775.200,0.939133
775.300,0.938899
775.400,0.938657
775.500,0.938439
775.600,0.938175
775.700,0.937914
775.800,0.937661
775.900,0.937386
776.000,0.937170
776.100,0.936903
776.200,0.936640
776.300,0.936372
776.400,0.936101
776.500,0.935910
776.600,0.935638
776.700,0.935362
776.800,0.935087
776.900,0.934814
777.000,0.934542
777.100,0.934306
777.200,0.934012
777.300,0.933752
777.400,0.933460
777.500,0.933169
777.600,0.932950
777.700,0.932662
777.800,0.932364
777.900,0.932065
778.000,0.931818
778.100,0.931516
778.200,0.931274
778.300,0.930976
778.400,0.930693
778.500,0.930386
778.600,0.930082
778.700,0.929852
778.800,0.929538
778.900,0.929231
779.000,0.928922
779.100,0.928622
779.200,0.928310
779.300,0.928052
779.400,0.927730
779.500,0.927459
779.600,0.927141
779.700,0.926820
779.800,0.926567
779.900,0.926244
780.000,0.925916
780.100,0.925582
780.200,0.925279
780.300,0.924946
780.400,0.924668
780.500,0.924340
780.600,0.924014
780.700,0.923676
780.800,0.923327
780.900,0.923075
781.000,0.922724
781.100,0.922377
781.200,0.922029
781.300,0.921731
781.400,0.921378
781.500,0.921091
781.600,0.920743
781.700,0.920399
781.800,0.920048
781.900,0.919677
782.000,0.919334
782.100,0.919045
782.200,0.918679
782.300,0.918310
782.400,0.917959
782.500,0.917584
782.600,0.917279
782.700,0.916903
782.800,0.916552
782.900,0.916163
783.000,0.915788
783.100,0.915413
783.200,0.915106
783.300,0.914716
783.400,0.914325
783.500,0.913960
783.600,0.913564
783.700,0.913274
783.800,0.912882
783.900,0.912501
784.000,0.912086
784.100,0.911687
784.200,0.911299
784.300,0.910964
784.400,0.910559
784.500,0.910142
784.600,0.909745
784.700,0.909333
784.800,0.908980
784.900,0.908563
785.000,0.908166
785.100,0.907745
785.200,0.907302
785.300,0.906898
785.400,0.906552
785.500,0.906102
785.600,0.905668
785.700,0.905255
785.800,0.904807
785.900,0.904356
786.000,0.903997
786.100,0.903564
786.200,0.903106
786.300,0.902655
786.400,0.902226
786.500,0.901858
786.600,0.901389
786.700,0.900927
786.800,0.900515
786.900,0.900047
787.000,0.899578
787.100,0.899176
787.200,0.898725
787.300,0.898247
787.400,0.897756
787.500,0.897286
787.600,0.896893
787.700,0.896394
787.800,0.895915
787.900,0.895435
788.000,0.894926
788.100,0.894425
788.200,0.894019
788.300,0.893537
788.400,0.893031
788.500,0.892518
788.600,0.892017
788.700,0.891487
788.800,0.891066
788.900,0.890556
789.000,0.890043
789.100,0.889512
789.200,0.888966
789.300,0.888521
789.400,0.888022
789.500,0.887479
789.600,0.886920
789.700,0.886411
789.800,0.885858
789.900,0.885410
790.000,0.884841
790.100,0.884305
790.200,0.883738
790.300,0.883171
790.400,0.882597
790.500,0.882160
790.600,0.881583
790.700,0.880999
790.800,0.880440
790.900,0.879852
791.000,0.879361
791.100,0.878780
791.200,0.878193
791.300,0.877604
791.400,0.876995
791.500,0.876383
791.600,0.875919
791.700,0.875299
791.800,0.874693
791.900,0.874080
792.000,0.873466
792.100,0.872831
792.200,0.872320
792.300,0.871707
792.400,0.871060
792.500,0.870413
792.600,0.869758
792.700,0.869276
792.800,0.868617
792.900,0.867951
793.000,0.867328
793.100,0.866653
793.200,0.865977
793.300,0.865428
793.400,0.864790
793.500,0.864083
793.600,0.863406
793.700,0.862706
793.800,0.862035
793.900,0.861466
794.000,0.860772
794.100,0.860069
794.200,0.859367
794.300,0.858660
794.400,0.858056
794.500,0.857373
794.600,0.856632
794.700,0.855891
794.800,0.855178
794.900,0.854455
795.000,0.853867
795.100,0.853108
795.200,0.852371
795.300,0.851619
795.400,0.850845
795.500,0.850061
795.600,0.849483
795.700,0.848695
795.800,0.847896
795.900,0.847133
796.000,0.846362
796.100,0.845710
796.200,0.844914
796.300,0.844129
796.400,0.843323
796.500,0.842488
796.600,0.841671
796.700,0.841052
796.800,0.840201
796.900,0.839369
797.000,0.838513
797.100,0.837705
797.200,0.836832
797.300,0.836133
797.400,0.835329
797.500,0.834465
797.600,0.833550
797.700,0.832674
797.800,0.831827
797.900,0.831122
798.000,0.830204
798.100,0.829306
798.200,0.828437
798.300,0.827506
798.400,0.826752
798.500,0.825888
798.600,0.824939
798.700,0.824005
798.800,0.823037
798.900,0.822106
799.000,0.821372
799.100,0.820414
799.200,0.819427
799.300,0.818494
799.400,0.817538
799.500,0.816532
799.600,0.815784
799.700,0.814759
799.800,0.813779
799.900,0.812746
800.000,0.811768
800.100,0.810744
800.200,0.809928
800.300,0.808891
800.400,0.807888
800.500,0.806813
800.600,0.805780
800.700,0.804755
800.800,0.803882
800.900,0.802804
801.000,0.801744
801.100,0.800667
801.200,0.799567
801.300,0.798690
801.400,0.797602
801.500,0.796496
801.600,0.795367
801.700,0.794256
801.800,0.793127
801.900,0.792215
802.000,0.791056
802.100,0.789890
802.200,0.788757
802.300,0.787574
802.400,0.786383
802.500,0.785435
802.600,0.784271
802.700,0.783057
802.800,0.781835
802.900,0.780646
803.000,0.779435
803.100,0.778420
803.200,0.777194
803.300,0.775974
803.400,0.774672
803.500,0.773420
803.600,0.772130
803.700,0.771117
803.800,0.769841
803.900,0.768525
804.000,0.767240
804.100,0.765906
804.200,0.764845
804.300,0.763526
804.400,0.762089
804.500,0.760751
804.600,0.759372
804.700,0.757982
804.800,0.756920
804.900,0.755513
805.000,0.754130
805.100,0.752703
805.200,0.751234
805.300,0.749821
805.400,0.748715
805.500,0.747238
805.600,0.745729
805.700,0.744278
805.800,0.742782
805.900,0.741356
806.000,0.740125
806.100,0.738635
806.200,0.737099
806.300,0.735517
806.400,0.734042
806.500,0.732473
806.600,0.731217
806.700,0.729592
806.800,0.728077
806.900,0.726467
807.000,0.724883
807.100,0.723212
807.200,0.722003
807.300,0.720349
807.400,0.718723
807.500,0.717057
807.600,0.715358
807.700,0.713657
807.800,0.712400
807.900,0.710638
808.000,0.708945
808.100,0.707251
808.200,0.705534
808.300,0.703722
808.400,0.702414
808.500,0.700621
808.600,0.698871
808.700,0.697045
808.800,0.695214
808.900,0.693862
809.000,0.691967
809.100,0.690200
809.200,0.688321
809.300,0.686474
809.400,0.684582
809.500,0.683118
809.600,0.681292
809.700,0.679351
809.800,0.677344
809.900,0.675434
810.000,0.673498
810.100,0.671929
810.200,0.669983
810.300,0.667962
810.400,0.666036
810.500,0.664035
810.600,0.661925
810.700,0.660404
810.800,0.658316
810.900,0.656210
811.000,0.654158
811.100,0.652026
811.200,0.649995
811.300,0.648250
811.400,0.646129
811.500,0.644007
811.600,0.641858
811.700,0.639709
811.800,0.637545
811.900,0.635835
812.000,0.633644
812.100,0.631319
812.200,0.629153
812.300,0.626904
812.400,0.624655
812.500,0.622896
812.600,0.620606
812.700,0.618315
812.800,0.615994
812.900,0.613675
813.000,0.611212
813.100,0.609441
813.200,0.607062
813.300,0.604627
813.400,0.602291
813.500,0.599866
813.600,0.597383
813.700,0.595471
813.800,0.593078
813.900,0.590593
814.000,0.588050
814.100,0.585555
814.200,0.583022
814.300,0.581056
814.400,0.578434
814.500,0.575936
814.600,0.573280
814.700,0.570750
814.800,0.568144
814.900,0.566090
815.000,0.563452
815.100,0.560864
815.200,0.558057
815.300,0.555437
815.400,0.552735
815.500,0.550609
815.600,0.547880
815.700,0.545114
815.800,0.542350
815.900,0.539573
816.000,0.536757
816.100,0.534646
816.200,0.531820
816.300,0.528836
816.400,0.526048
816.500,0.523244
816.600,0.520262
816.700,0.518012
816.800,0.515163
816.900,0.512299
817.000,0.509254
817.100,0.506288
817.200,0.503376
817.300,0.501031
817.400,0.498036
817.500,0.494934
817.600,0.491963
817.700,0.488880
817.800,0.485877
817.900,0.483409
818.000,0.480378
818.100,0.477235
818.200,0.474099
818.300,0.471023
818.400,0.467931
818.500,0.465413
818.600,0.462118
818.700,0.458984
818.800,0.455836
818.900,0.452672
819.000,0.449417
819.100,0.446886
819.200,0.443579
819.300,0.440360
819.400,0.437049
819.500,0.433750
819.600,0.430489
819.700,0.427872
819.800,0.424507
819.900,0.421123
820.000,0.417810
820.100,0.414484
820.200,0.411064
820.300,0.408386
820.400,0.405023
820.500,0.401566
820.600,0.398129
820.700,0.394643
820.800,0.391231
820.900,0.388414
821.000,0.384981
821.100,0.381536
821.200,0.378080
821.300,0.374529
821.400,0.371051
821.500,0.368380
821.600,0.364884
821.700,0.361157
821.800,0.357641
821.900,0.354116
822.000,0.350581
822.100,0.347783
822.200,0.344232
822.300,0.340674
822.400,0.337107
822.500,0.333446
822.600,0.329747
822.700,0.327001
822.800,0.323365
822.900,0.319677
823.000,0.316070
823.100,0.312365
823.200,0.308659
823.300,0.305888
823.400,0.302261
823.500,0.298630
823.600,0.294908
823.700,0.291269
823.800,0.287627
823.900,0.283946
824.000,0.281072
824.100,0.277425
824.200,0.273776
824.300,0.270127
824.400,0.266389
824.500,0.262740
824.600,0.259952
824.700,0.256304
824.800,0.252569
824.900,0.248892
825.000,0.245251
825.100,0.241612
825.200,0.238867
825.300,0.235235
825.400,0.231608
825.500,0.227898
825.600,0.224282
825.700,0.220671
825.800,0.217921
825.900,0.214237
826.000,0.210621
826.100,0.207041
826.200,0.203469
826.300,0.199822
826.400,0.197205
826.500,0.193662
826.600,0.190246
826.700,0.186642
826.800,0.183135
826.900,0.179642
827.000,0.176989
827.100,0.173419
827.200,0.169967
827.300,0.166532
827.400,0.163113
827.500,0.159630
827.600,0.157162
827.700,0.153793
827.800,0.150428
827.900,0.147099
828.000,0.143971
828.100,0.140683
828.200,0.138194
828.300,0.134934
828.400,0.131710
828.500,0.128604
828.600,0.125428
828.700,0.122278
828.800,0.119145
828.900,0.116787
829.000,0.113805
829.100,0.110836
829.200,0.107811
829.300,0.104822
829.400,0.101863
829.500,0.099630
829.600,0.096822
829.700,0.093947
829.800,0.091109
829.900,0.088305
830.000,0.085534
830.100,0.083614
830.200,0.080905
830.300,0.078233
830.400,0.075598
830.500,0.073002
830.600,0.070527
830.700,0.068617
830.800,0.066128
830.900,0.063758
831.000,0.061352
831.100,0.058984
831.200,0.056739
831.300,0.055060
831.400,0.052808
831.500,0.050678
831.600,0.048513
831.700,0.046399
831.800,0.044393
831.900,0.042902
832.000,0.040915
832.100,0.039030
832.200,0.037137
832.300,0.035284
832.400,0.033594
832.500,0.031836
832.600,0.030536
832.700,0.028930
832.800,0.027308
832.900,0.025748
833.000,0.024318
833.100,0.022847
833.200,0.021779
833.300,0.020445
833.400,0.019129
833.500,0.017887
833.600,0.016664
833.700,0.015546
833.800,0.014696
833.900,0.013696
834.000,0.012672
834.100,0.011702
834.200,0.010831
834.300,0.009991
834.400,0.009390
834.500,0.008649
834.600,0.007937
834.700,0.007334
834.800,0.006730
834.900,0.006197
835.000,0.005722
835.100,0.005398
835.200,0.005030
835.300,0.004688
835.400,0.004418
835.500,0.004201
835.600,0.004040
835.700,0.003949
835.800,0.003869
835.900,0.003861
836.000,0.003891
836.100,0.003987
836.200,0.004127
836.300,0.004258
836.400,0.004506
836.500,0.004785
836.600,0.005132
836.700,0.005527
836.800,0.005963
836.900,0.006352
837.000,0.006878
837.100,0.007487
837.200,0.008098
837.300,0.008775
837.400,0.009539
837.500,0.010317
837.600,0.010947
837.700,0.011811
837.800,0.012755
837.900,0.013700
838.000,0.014744
838.100,0.015811
838.200,0.016639
838.300,0.017779
838.400,0.019015
838.500,0.020213
838.600,0.021543
838.700,0.022867
838.800,0.023901
838.900,0.025302
839.000,0.026797
839.100,0.028251
839.200,0.029836
839.300,0.031416
839.400,0.032629
839.500,0.034276
839.600,0.036027
839.700,0.037709
839.800,0.039542
839.900,0.041300
840.000,0.043212
840.100,0.044614
840.200,0.046475
840.300,0.048493
840.400,0.050425
840.500,0.052447
840.600,0.054576
840.700,0.056073
840.800,0.058263
840.900,0.060356
841.000,0.062541
841.100,0.064832
841.200,0.067021
841.300,0.068710
841.400,0.071030
841.500,0.073358
841.600,0.075722
841.700,0.078132
841.800,0.080546
841.900,0.083013
842.000,0.084843
842.100,0.087340
842.200,0.089881
842.300,0.092419
842.400,0.094921
842.500,0.097597
842.600,0.099543
842.700,0.102109
842.800,0.104850
842.900,0.107459
843.000,0.110311
843.100,0.112963
843.200,0.115001
843.300,0.117843
843.400,0.120547
843.500,0.123329
843.600,0.126167
843.700,0.129002
843.800,0.131756
843.900,0.133884
844.000,0.136764
844.100,0.139660
844.200,0.142571
844.300,0.145495
844.400,0.148434
844.500,0.150518
844.600,0.153583
844.700,0.156450
844.800,0.159436
844.900,0.162350
845.000,0.165437
845.100,0.167589
845.200,0.170588
845.300,0.173538
845.400,0.176688
845.500,0.179627
845.600,0.182687
845.700,0.185640
845.800,0.188025
845.900,0.191019
846.000,0.194074
846.100,0.197079
846.200,0.200253
846.300,0.203268
846.400,0.205568
846.500,0.208557
846.600,0.211671
846.700,0.214666
846.800,0.217808
846.900,0.220931
847.000,0.223932
847.100,0.226245
847.200,0.229248
847.300,0.232377
847.400,0.235529
847.500,0.238621
847.600,0.241664
847.700,0.243939
847.800,0.246981
847.900,0.250069
848.000,0.253219
848.100,0.256345
848.200,0.259341
848.300,0.261648
848.400,0.264639
848.500,0.267780
848.600,0.270895
848.700,0.273876
848.800,0.276985
848.900,0.279958
849.000,0.282248
849.100,0.285368
849.200,0.288492
849.300,0.291494
849.400,0.294445
849.500,0.297523
849.600,0.299705
849.700,0.302727
849.800,0.305812
849.900,0.308736
850.000,0.311787
850.100,0.314745
850.200,0.317735
850.300,0.319885
850.400,0.322777
850.500,0.325796
850.600,0.328829
850.700,0.331783
850.800,0.334695
850.900,0.336764
851.000,0.339746
851.100,0.342586
851.200,0.345468
851.300,0.348425
851.400,0.351240
851.500,0.353407
851.600,0.356206
851.700,0.359048
851.800,0.361964
851.900,0.364840
852.000,0.367737
852.100,0.370491
852.200,0.372529
852.300,0.375347
852.400,0.378127
852.500,0.380845
852.600,0.383687
852.700,0.386385
852.800,0.388461
852.900,0.391142
853.000,0.393866
853.100,0.396673
853.200,0.399323
853.300,0.402016
853.400,0.404724
853.500,0.406669
853.600,0.409280
853.700,0.412110
853.800,0.414699
853.900,0.417333
854.000,0.419978
854.100,0.421823
854.200,0.424427
854.300,0.427042
854.400,0.429624
854.500,0.432141
854.600,0.434777
854.700,0.437242
854.800,0.439088
854.900,0.441638
855.000,0.444103
855.100,0.446612
855.200,0.449128
855.300,0.451616
855.400,0.453359
855.500,0.455827
855.600,0.458301
855.700,0.460747
855.800,0.463126
855.900,0.465405
856.000,0.467890
856.100,0.469578
856.200,0.471972
856.300,0.474369
856.400,0.476799
856.500,0.479103
856.600,0.481396
856.700,0.483162
856.800,0.485436
856.900,0.487755
857.000,0.490006
857.100,0.492286
857.200,0.494516
857.300,0.496791
857.400,0.498443
857.500,0.500643
857.600,0.502888
857.700,0.505066
857.800,0.507354
857.900,0.509510
858.000,0.511159
858.100,0.513295
858.200,0.515541
858.300,0.517656
858.400,0.519760
858.500,0.521909
858.600,0.523976
858.700,0.525516
858.800,0.527580
858.900,0.529690
859.000,0.531794
859.100,0.533882
859.200,0.535904
859.300,0.537343
859.400,0.539326
859.500,0.541379
859.600,0.543417
859.700,0.545439
859.800,0.547381
859.900,0.549392
860.000,0.550835
860.100,0.552768
860.200,0.554691
860.300,0.556587
860.400,0.558547
860.500,0.560495
860.600,0.561841
860.700,0.563771
860.800,0.565565
860.900,0.567532
861.000,0.569377
861.100,0.571213
861.200,0.573093
861.300,0.574435
861.400,0.576284
861.500,0.578082
861.600,0.579926
861.700,0.581705
861.800,0.583529
861.900,0.585276
862.000,0.586524
862.100,0.588322
862.200,0.590057
862.300,0.591835
862.400,0.593485
862.500,0.595298
862.600,0.596507
862.700,0.598251
862.800,0.599932
862.900,0.601539
863.000,0.603297
863.100,0.605002
863.200,0.606699
863.300,0.607863
863.400,0.609482
863.500,0.611103
863.600,0.612767
863.700,0.614419
863.800,0.615951
863.900,0.617131
864.000,0.618710
864.100,0.620333
864.200,0.621834
864.300,0.623439
864.400,0.624984
864.500,0.626620
864.600,0.627684
864.700,0.629205
864.800,0.630770
864.900,0.632275
865.000,0.633766
865.100,0.635254
865.200,0.636786
865.300,0.637877
865.400,0.639286
865.500,0.640796
865.600,0.642246
865.700,0.643684
865.800,0.645118
865.900,0.646181
866.000,0.647547
866.100,0.649055
866.200,0.650461
866.300,0.651839
866.400,0.653280
866.500,0.654662
866.600,0.655633
866.700,0.657003
866.800,0.658415
866.900,0.659717
867.000,0.661114
867.100,0.662455
867.200,0.663346
867.300,0.664723
867.400,0.665992
867.500,0.667355
867.600,0.668702
867.700,0.669999
867.800,0.671292
867.900,0.672281
868.000,0.673510
868.100,0.674784
868.200,0.676049
868.300,0.677308
868.400,0.678609
868.500,0.679806
868.600,0.680729
868.700,0.681963
868.800,0.683190
868.900,0.684412
869.000,0.685579
869.100,0.686834
869.200,0.687682
869.300,0.688879
869.400,0.690107
869.500,0.691291
869.600,0.692498
869.700,0.693715
869.800,0.694834
869.900,0.695651
870.000,0.696806
870.100,0.697954
870.200,0.699142
870.300,0.700233
870.400,0.701409
870.500,0.702488
870.600,0.703321
870.700,0.704391
870.800,0.705498
870.900,0.706602
871.000,0.707698
871.100,0.708790
871.200,0.709580
871.300,0.710705
871.400,0.711737
871.500,0.712850
871.600,0.713871
871.700,0.714929
871.800,0.715983
871.900,0.716719
872.000,0.717764
872.100,0.718801
872.200,0.719876
872.300,0.720862
872.400,0.721926
872.500,0.722901
872.600,0.723610
872.700,0.724620
872.800,0.725621
872.900,0.726645
873.000,0.727635
873.100,0.728664
873.200,0.729312
873.300,0.730331
873.400,0.731264
873.500,0.732230
873.600,0.733196
873.700,0.734152
873.800,0.735108
873.900,0.735771
874.000,0.736718
874.100,0.737656
874.200,0.738523
874.300,0.739493
874.400,0.740380
874.500,0.741327
874.600,0.741967
874.700,0.742882
874.800,0.743789
874.900,0.744695
875.000,0.745593
875.100,0.746449
875.200,0.747378
875.300,0.747960
875.400,0.748846
875.500,0.749722
875.600,0.750598
875.700,0.751465
875.800,0.752333
875.900,0.752933
876.000,0.753726
876.100,0.754583
876.200,0.755450
876.300,0.756298
876.400,0.757136
876.500,0.757976
876.600,0.758554
876.700,0.759387
876.800,0.760176
876.900,0.760995
877.000,0.761815
877.100,0.762625
877.200,0.763438
877.300,0.763971
877.400,0.764777
877.500,0.765540
877.600,0.766370
877.700,0.767125
877.800,0.767928
877.900,0.768714
878.000,0.769223
878.100,0.770034
878.200,0.770772
878.300,0.771575
878.400,0.772306
878.500,0.773046
878.600,0.773571
878.700,0.774329
878.800,0.775047
878.900,0.775828
879.000,0.776576
879.100,0.777283
879.200,0.778053
879.300,0.778544
879.400,0.779271
879.500,0.780002
879.600,0.780729
879.700,0.781446
879.800,0.782167
879.900,0.782884
880.000,0.783410
880.100,0.784062
880.200,0.784799
880.300,0.785503
880.400,0.786168
880.500,0.786894
880.600,0.787589
880.700,0.788019
880.800,0.788713
880.900,0.789399
881.000,0.790074
881.100,0.790753
881.200,0.791429
881.300,0.791890
881.400,0.792539
881.500,0.793207
881.600,0.793837
881.700,0.794525
881.800,0.795184
881.900,0.795805
882.000,0.796258
882.100,0.796914
882.200,0.797527
882.300,0.798171
882.400,0.798838
882.500,0.799443
882.600,0.800058
882.700,0.800497
882.800,0.801153
882.900,0.801747
883.000,0.802372
883.100,0.803018
883.200,0.803584
883.300,0.804200
883.400,0.804651
883.500,0.805229
883.600,0.805838
883.700,0.806448
883.800,0.807018
883.900,0.807619
884.000,0.808216
884.100,0.808621
884.200,0.809194
884.300,0.809785
884.400,0.810364
884.500,0.810949
884.600,0.811531
884.700,0.812060
884.800,0.812470
884.900,0.813045
885.000,0.813586
885.100,0.814138
885.200,0.814729
885.300,0.815263
885.400,0.815653
885.500,0.816214
885.600,0.816754
885.700,0.817301
885.800,0.817855
885.900,0.818406
886.000,0.818906
886.100,0.819306
886.200,0.819850
886.300,0.820362
886.400,0.820884
886.500,0.821443
886.600,0.821948
886.700,0.822480
886.800,0.822830
886.900,0.823350
887.000,0.823876
887.100,0.824401
887.200,0.824875
887.300,0.825416
887.400,0.825933
887.500,0.826260
887.600,0.826757
887.700,0.827268
887.800,0.827768
887.900,0.828275
888.000,0.828763
888.100,0.829236
888.200,0.829582
888.300,0.830101
888.400,0.830582
888.500,0.831047
888.600,0.831540
888.700,0.832030
888.800,0.832474
888.900,0.832818
889.000,0.833303
889.100,0.833757
889.200,0.834222
889.300,0.834701
889.400,0.835149
889.500,0.835643
889.600,0.835954
889.700,0.836397
889.800,0.836866
889.900,0.837318
890.000,0.837756
890.100,0.838238
890.200,0.838556
890.300,0.838973
890.400,0.839432
890.500,0.839888
890.600,0.840300
890.700,0.840771
890.800,0.841222
890.900,0.841489
891.000,0.841936
891.100,0.842382
891.200,0.842811
891.300,0.843226
891.400,0.843666
891.500,0.844104
891.600,0.844381
891.700,0.844817
891.800,0.845250
891.900,0.845641
892.000,0.846071
892.100,0.846499
892.200,0.846885
892.300,0.847177
892.400,0.847601
892.500,0.847982
892.600,0.848403
892.700,0.848821
892.800,0.849215
892.900,0.849630
893.000,0.849905
893.100,0.850277
893.200,0.850688
893.300,0.851097
893.400,0.851465
893.500,0.851871
893.600,0.852275
893.700,0.852538
893.800,0.852914
893.900,0.853314
894.000,0.853699
894.100,0.854086
894.200,0.854468
894.300,0.854861
894.400,0.855105
894.500,0.855483
894.600,0.855872
894.700,0.856235
894.800,0.856608
894.900,0.856993
895.000,0.857351
895.100,0.857616
895.200,0.857997
895.300,0.858351
895.400,0.858716
895.500,0.859092
895.600,0.859442
895.700,0.859803
895.800,0.860058
895.900,0.860404
896.000,0.860761
896.100,0.861129
896.200,0.861459
896.300,0.861824
896.400,0.862188
896.500,0.862424
896.600,0.862761
896.700,0.863109
896.800,0.863468
896.900,0.863801
897.000,0.864145
897.100,0.864492
897.200,0.864698
897.300,0.865050
897.400,0.865401
897.500,0.865715
897.600,0.866063
897.700,0.866399
897.800,0.866721
897.900,0.866956
898.000,0.867288
898.100,0.867607
898.200,0.867936
898.300,0.868262
898.400,0.868577
898.500,0.868902
898.600,0.869132
898.700,0.869432
898.800,0.869766
898.900,0.870087
899.000,0.870396
899.100,0.870725
899.200,0.871043
899.300,0.871267
899.400,0.871560
899.500,0.871885
899.600,0.872209
899.700,0.872499
899.800,0.872821
899.900,0.873130
900.000,0.873326
900.100,0.873634
900.200,0.873951
900.300,0.874245
900.400,0.874550
900.500,0.874864
900.600,0.875144
900.700,0.875356
900.800,0.875657
900.900,0.875944
901.000,0.876243
901.100,0.876550
901.200,0.876828
901.300,0.877110
901.400,0.877317
901.500,0.877589
901.600,0.877891
901.700,0.878182
901.800,0.878461
901.900,0.878750
902.000,0.879048
902.100,0.879240
902.200,0.879515
902.300,0.879810
902.400,0.880094
902.500,0.880366
902.600,0.880636
902.700,0.880927
902.800,0.881093
902.900,0.881382
903.000,0.881661
903.100,0.881927
903.200,0.882203
903.300,0.882488
903.400,0.882742
903.500,0.882928
903.600,0.883189
903.700,0.883450
903.800,0.883721
903.900,0.883995
904.000,0.884243
904.100,0.884521
904.200,0.884699
904.300,0.884969
904.400,0.885203
904.500,0.885477
904.600,0.885750
904.700,0.885993
904.800,0.886258
904.900,0.886432
905.000,0.886682
905.100,0.886930
905.200,0.887192
905.300,0.887430
905.400,0.887696
905.500,0.887952
905.600,0.888111
905.700,0.888360
905.800,0.888602
905.900,0.888844
906.000,0.889096
906.100,0.889351
906.200,0.889581
906.300,0.889756
906.400,0.890005
906.500,0.890256
906.600,0.890473
906.700,0.890728
906.800,0.890973
906.900,0.891207
907.000,0.891364
907.100,0.891616
907.200,0.891839
907.300,0.892089
907.400,0.892314
907.500,0.892544
907.600,0.892783
907.700,0.892950
907.800,0.893169
907.900,0.893409
908.000,0.893645
908.100,0.893851
908.200,0.894094
908.300,0.894323
908.400,0.894486
908.500,0.894700
908.600,0.894930
908.700,0.895156
908.800,0.895376
908.900,0.895605
909.000,0.895842
909.100,0.895965
909.200,0.896187
909.300,0.896422
909.400,0.896630
909.500,0.896863
909.600,0.897073
909.700,0.897287
909.800,0.897510
909.900,0.897657
910.000,0.897859
910.100,0.898075
910.200,0.898303
910.300,0.898505
910.400,0.898722
910.500,0.898936
910.600,0.899088
910.700,0.899287
910.800,0.899494
910.900,0.899713
911.000,0.899910
911.100,0.900132
911.200,0.900336
911.300,0.900467
911.400,0.900675
911.500,0.900887
911.600,0.901079
911.700,0.901289
911.800,0.901502
911.900,0.901694
912.000,0.901831
912.100,0.902038
912.200,0.902228
912.300,0.902437
912.400,0.902643
912.500,0.902856
912.600,0.903035
912.700,0.903165
912.800,0.903376
912.900,0.903562
913.000,0.903763
913.100,0.903960
913.200,0.904144
913.300,0.904343
913.400,0.904475
913.500,0.904657
913.600,0.904850
913.700,0.905048
913.800,0.905236
913.900,0.905425
914.000,0.905617
914.100,0.905736
914.200,0.905923
914.300,0.906125
914.400,0.906302
914.500,0.906492
914.600,0.906683
914.700,0.906875
914.800,0.906992
914.900,0.907179
915.000,0.907362
915.100,0.907542
915.200,0.907732
915.300,0.907909
915.400,0.908087
915.500,0.908275
915.600,0.908405
915.700,0.908568
915.800,0.908750
915.900,0.908943
916.000,0.909104
916.100,0.909288
916.200,0.909475
916.300,0.909572
916.400,0.909761
916.500,0.909944
916.600,0.910122
916.700,0.910286
916.800,0.910467
916.900,0.910647
917.000,0.910748
917.100,0.910924
917.200,0.911103
917.300,0.911264
917.400,0.911442
917.500,0.911616
917.600,0.911776
917.700,0.911891
917.800,0.912060
917.900,0.912226
918.000,0.912397
918.100,0.912564
918.200,0.912728
918.300,0.912902
918.400,0.913004
918.500,0.913167
918.600,0.913332
918.700,0.913503
918.800,0.913677
918.900,0.913825
919.000,0.913994
919.100,0.914170
919.200,0.914258
919.300,0.914423
919.400,0.914590
919.500,0.914743
919.600,0.914910
919.700,0.915072
919.800,0.915223
919.900,0.915324
920.000,0.915490
920.100,0.915646
920.200,0.915799
920.300,0.915963
920.400,0.916111
920.500,0.916274
920.600,0.916377
920.700,0.916538
920.800,0.916685
920.900,0.916839
921.000,0.917002
921.100,0.917148
921.200,0.917301
921.300,0.917405
921.400,0.917556
921.500,0.917704
921.600,0.917862
921.700,0.918004
921.800,0.918161
921.900,0.918315
922.000,0.918402
922.100,0.918558
922.200,0.918707
922.300,0.918848
922.400,0.919005
922.500,0.919152
922.600,0.919292
922.700,0.919444
922.800,0.919541
922.900,0.919687
923.000,0.919831
923.100,0.919983
923.200,0.920125
923.300,0.920262
923.400,0.920411
923.500,0.920509
923.600,0.920639
923.700,0.920790
923.800,0.920933
923.900,0.921068
924.000,0.921216
924.100,0.921360
924.200,0.921442
924.300,0.921583
924.400,0.921730
924.500,0.921861
924.600,0.922004
924.700,0.922143
924.800,0.922288
924.900,0.922368
925.000,0.922509
925.100,0.922653
925.200,0.922777
925.300,0.922926
925.400,0.923059
925.500,0.923189
925.600,0.923324
925.700,0.923422
925.800,0.923544
925.900,0.923682
926.000,0.923816
926.100,0.923948
926.200,0.924088
926.300,0.924219
926.400,0.924296
926.500,0.924434
926.600,0.924573
926.700,0.924691
926.800,0.924827
926.900,0.924963
927.000,0.925100
927.100,0.925170
927.200,0.925303
927.300,0.925438
927.400,0.925561
927.500,0.925690
927.600,0.925823
927.700,0.925938
927.800,0.926077
927.900,0.926143
928.000,0.926277
928.100,0.926389
928.200,0.926511
928.300,0.926623
928.400,0.926755
928.500,0.926866
928.600,0.926941
928.700,0.927054
928.800,0.927182
928.900,0.927292
929.000,0.927407
929.100,0.927524
929.200,0.927651
929.300,0.927714
929.400,0.927831
929.500,0.927939
929.600,0.928070
929.700,0.928177
929.800,0.928293
929.900,0.928412
930.000,0.928529
930.100,0.928593
930.200,0.928705
930.300,0.928824
930.400,0.928935
930.500,0.929043
930.600,0.929159
930.700,0.929276
930.800,0.929342
930.900,0.929449
931.000,0.929559
931.100,0.929679
931.200,0.929785
931.300,0.929894
931.400,0.930010
931.500,0.930075
931.600,0.930184
931.700,0.930292
931.800,0.930406
931.900,0.930516
932.000,0.930618
932.100,0.930725
932.200,0.930799
932.300,0.930903
932.400,0.931009
932.500,0.931110
932.600,0.931229
932.700,0.931329
932.800,0.931439
932.900,0.931538
933.000,0.931615
933.100,0.931714
933.200,0.931813
933.300,0.931931
933.400,0.932033
933.500,0.932137
933.600,0.932235
933.700,0.932310
933.800,0.932407
933.900,0.932505
934.000,0.932613
934.100,0.932722
934.200,0.932823
934.300,0.932920
934.400,0.933023
934.500,0.933089
934.600,0.933189
934.700,0.933292
934.800,0.933387
934.900,0.933499
935.000,0.933593
935.100,0.933690
935.200,0.933760
935.300,0.933859
935.400,0.933955
935.500,0.934053
935.600,0.934158
935.700,0.934256
935.800,0.934351
935.900,0.934404
936.000,0.934517
936.100,0.934610
936.200,0.934704
936.300,0.934801
936.400,0.934904
936.500,0.934997
936.600,0.935093
936.700,0.935160
936.800,0.935256
936.900,0.935349
937.000,0.935439
937.100,0.935545
937.200,0.935637
937.300,0.935727
937.400,0.935783
937.500,0.935888
937.600,0.935979
937.700,0.936073
937.800,0.936161
937.900,0.936263
938.000,0.936356
938.100,0.936406
938.200,0.936499
938.300,0.936604
938.400,0.936691
938.500,0.936783
938.600,0.936883
938.700,0.936970
938.800,0.937062
938.900,0.937111
939.000,0.937215
939.100,0.937301
939.200,0.937391
939.300,0.937483
939.400,0.937580
939.500,0.937665
939.600,0.937718
939.700,0.937805
939.800,0.937901
939.900,0.937990
940.000,0.938076
940.100,0.938161
940.200,0.938259
940.300,0.938347
940.400,0.938397
940.500,0.938491
940.600,0.938579
940.700,0.938664
940.800,0.938747
940.900,0.938845
941.000,0.938927
941.100,0.938976
941.200,0.939058
941.300,0.939159
941.400,0.939241
941.500,0.939324
941.600,0.939410
941.700,0.939502
941.800,0.939549
941.900,0.939635
942.000,0.939726
942.100,0.939807
942.200,0.939894
942.300,0.939974
942.400,0.940064
942.500,0.940149
942.600,0.940199
942.700,0.940279
942.800,0.940368
942.900,0.940453
943.000,0.940533
943.100,0.940612
943.200,0.940706
943.300,0.940751
943.400,0.940829
943.500,0.940907
943.600,0.941001
943.700,0.941079
943.800,0.941157
943.900,0.941251
944.000,0.941332
944.100,0.941375
944.200,0.941452
944.300,0.941545
944.400,0.941622
944.500,0.941698
944.600,0.941781
944.700,0.941867
944.800,0.941909
944.900,0.941990
945.000,0.942067
945.100,0.942152
945.200,0.942232
945.300,0.942309
945.400,0.942384
945.500,0.942469
945.600,0.942515
945.700,0.942591
945.800,0.942675
945.900,0.942754
946.000,0.942830
946.100,0.942904
946.200,0.942987
946.300,0.943036
946.400,0.943111
946.500,0.943185
946.600,0.943267
946.700,0.943345
946.800,0.943419
946.900,0.943492
947.000,0.943574
947.100,0.943616
947.200,0.943693
947.300,0.943774
947.400,0.943846
947.500,0.943920
947.600,0.943996
947.700,0.944077
947.800,0.944118
947.900,0.944189
948.000,0.944265
948.100,0.944345
948.200,0.944417
948.300,0.944488
948.400,0.944563
948.500,0.944644
948.600,0.944683
948.700,0.944753
948.800,0.944827
948.900,0.944908
949.000,0.944977
949.100,0.945047
949.200,0.945118
949.300,0.945169
949.400,0.945239
949.500,0.945308
949.600,0.945378
949.700,0.945447
949.800,0.945515
949.900,0.945598
950.000,0.945667
950.100,0.945704
950.200,0.945773
950.300,0.945842
950.400,0.945914
950.500,0.945990
950.600,0.946059
950.700,0.946127
950.800,0.946164
950.900,0.946231
951.000,0.946303
951.100,0.946379
951.200,0.946446
951.300,0.946512
951.400,0.946580
951.500,0.946647
951.600,0.946696
951.700,0.946763
951.800,0.946829
951.900,0.946895
952.000,0.946961
952.100,0.947031
952.200,0.947105
952.300,0.947142
952.400,0.947208
952.500,0.947273
952.600,0.947338
952.700,0.947407
952.800,0.947481
952.900,0.947546
953.000,0.947610
953.100,0.947647
953.200,0.947711
953.300,0.947779
953.400,0.947851
953.500,0.947917
953.600,0.947977
953.700,0.948041
953.800,0.948077
953.900,0.948153
954.000,0.948216
954.100,0.948279
954.200,0.948343
954.300,0.948406
954.400,0.948469
954.500,0.948540
954.600,0.948575
954.700,0.948638
954.800,0.948703
954.900,0.948767
955.000,0.948829
955.100,0.948899
955.200,0.948961
955.300,0.948996
955.400,0.949057
955.500,0.949122
955.600,0.949185
955.700,0.949254
955.800,0.949315
955.900,0.949376
956.000,0.949435
956.100,0.949472
956.200,0.949541
956.300,0.949603
956.400,0.949663
956.500,0.949723
956.600,0.949787
956.700,0.949848
956.800,0.949889
956.900,0.949949
957.000,0.950010
957.100,0.950069
957.200,0.950129
957.300,0.950191
957.400,0.950260
957.500,0.950319
957.600,0.950348
957.700,0.950408
957.800,0.950467
957.900,0.950526
958.000,0.950592
958.100,0.950652
958.200,0.950714
958.300,0.950772
958.400,0.950804
958.500,0.950871
958.600,0.950929
958.700,0.950987
958.800,0.951045
958.900,0.951100
959.000,0.951158
959.100,0.951197
959.200,0.951255
959.300,0.951313
959.400,0.951370
959.500,0.951428
959.600,0.951485
959.700,0.951549
959.800,0.951606
959.900,0.951641
960.000,0.951695
960.100,0.951751
960.200,0.951808
960.300,0.951872
960.400,0.951928
960.500,0.951984
960.600,0.952016
960.700,0.952071
960.800,0.952130
960.900,0.952194
961.000,0.952250
961.100,0.952303
961.200,0.952358
961.300,0.952414
961.400,0.952452
961.500,0.952506
961.600,0.952561
961.700,0.952620
961.800,0.952675
961.900,0.952729
962.000,0.952790
962.100,0.952844
962.200,0.952873
962.300,0.952928
962.400,0.952983
962.500,0.953037
962.600,0.953098
962.700,0.953153
962.800,0.953206
962.900,0.953233
963.000,0.953286
963.100,0.953341
963.200,0.953401
963.300,0.953455
963.400,0.953509
963.500,0.953565
963.600,0.953618
963.700,0.953651
963.800,0.953705
963.900,0.953757
964.000,0.953810
964.100,0.953863
964.200,0.953916
964.300,0.953975
964.400,0.954003
964.500,0.954054
964.600,0.954106
964.700,0.954158
964.800,0.954210
964.900,0.954269
965.000,0.954321
965.100,0.954372
965.200,0.954399
965.300,0.954450
965.400,0.954501
965.500,0.954560
965.600,0.954612
965.700,0.954663
965.800,0.954713
965.900,0.954763
966.000,0.954797
966.100,0.954848
966.200,0.954898
966.300,0.954950
966.400,0.955000
966.500,0.955050
966.600,0.955106
966.700,0.955133
966.800,0.955183
966.900,0.955233
967.000,0.955284
967.100,0.955333
967.200,0.955388
967.300,0.955438
967.400,0.955488
967.500,0.955514
967.600,0.955564
967.700,0.955614
967.800,0.955670
967.900,0.955717
968.000,0.955767
968.100,0.955815
968.200,0.955864
968.300,0.955897
968.400,0.955947
968.500,0.955995
968.600,0.956041
968.700,0.956090
968.800,0.956139
968.900,0.956194
969.000,0.956220
969.100,0.956269
969.200,0.956315
969.300,0.956362
969.400,0.956410
969.500,0.956466
969.600,0.956513
969.700,0.956559
969.800,0.956585
969.900,0.956632
970.000,0.956680
970.100,0.956734
970.200,0.956782
970.300,0.956827
970.400,0.956874
970.500,0.956920
970.600,0.956945
970.700,0.956992
970.800,0.957037
970.900,0.957083
971.000,0.957129
971.100,0.957176
971.200,0.957229
971.300,0.957253
971.400,0.957297
971.500,0.957343
971.600,0.957390
971.700,0.957436
971.800,0.957482
971.900,0.957527
972.000,0.957570
972.100,0.957594
972.200,0.957640
972.300,0.957683
972.400,0.957729
972.500,0.957772
972.600,0.957817
972.700,0.957862
972.800,0.957914
972.900,0.957936
973.000,0.957980
973.100,0.958025
973.200,0.958070
973.300,0.958115
973.400,0.958158
973.500,0.958202
973.600,0.958247
973.700,0.958271
973.800,0.958312
973.900,0.958355
974.000,0.958399
974.100,0.958443
974.200,0.958487
974.300,0.958529
974.400,0.958559
974.500,0.958603
974.600,0.958646
974.700,0.958688
974.800,0.958729
974.900,0.958773
975.000,0.958817
975.100,0.958860
975.200,0.958883
975.300,0.958924
975.400,0.958965
975.500,0.959008
975.600,0.959051
975.700,0.959092
975.800,0.959136
975.900,0.959179
976.000,0.959201
976.100,0.959250
976.200,0.959290
976.300,0.959333
976.400,0.959376
976.500,0.959418
976.600,0.959459
976.700,0.959479
976.800,0.959521
976.900,0.959564
977.000,0.959606
977.100,0.959646
977.200,0.959688
977.300,0.959730
977.400,0.959772
977.500,0.959792
977.600,0.959834
977.700,0.959882
977.800,0.959923
977.900,0.959963
978.000,0.960005
978.100,0.960046
978.200,0.960085
978.300,0.960104
978.400,0.960146
978.500,0.960187
978.600,0.960228
978.700,0.960268
978.800,0.960309
978.900,0.960350
979.000,0.960391
979.100,0.960410
979.200,0.960451
979.300,0.960496
979.400,0.960536
979.500,0.960574
979.600,0.960615
979.700,0.960656
979.800,0.960677
979.900,0.960715
980.000,0.960753
980.100,0.960794
980.200,0.960834
980.300,0.960872
980.400,0.960912
980.500,0.960952
980.600,0.960972
980.700,0.961011
980.800,0.961048
980.900,0.961088
981.000,0.961134
981.100,0.961171
981.200,0.961211
981.300,0.961251
981.400,0.961271
981.500,0.961306
981.600,0.961345
981.700,0.961385
981.800,0.961422
981.900,0.961461
982.000,0.961500
982.100,0.961539
982.200,0.961556
982.300,0.961595
982.400,0.961633
982.500,0.961670
982.600,0.961714
982.700,0.961751
982.800,0.961790
982.900,0.961826
983.000,0.961846
983.100,0.961885
983.200,0.961921
983.300,0.961958
983.400,0.961996
983.500,0.962034
983.600,0.962070
983.700,0.962088
983.800,0.962126
983.900,0.962164
984.000,0.962200
984.100,0.962238
984.200,0.962282
984.300,0.962318
984.400,0.962355
984.500,0.962375
984.600,0.962410
984.700,0.962446
984.800,0.962483
984.900,0.962521
985.000,0.962556
985.100,0.962594
985.200,0.962631
985.300,0.962646
985.400,0.962684
985.500,0.962721
985.600,0.962756
985.700,0.962793
985.800,0.962833
985.900,0.962870
986.000,0.962905
986.100,0.962924
986.200,0.962959
986.300,0.962994
986.400,0.963030
986.500,0.963067
986.600,0.963102
986.700,0.963136
986.800,0.963172
986.900,0.963191
987.000,0.963226
987.100,0.963262
987.200,0.963298
987.300,0.963331
987.400,0.963367
987.500,0.963408
987.600,0.963425
987.700,0.963461
987.800,0.963494
987.900,0.963528
988.000,0.963564
988.100,0.963600
988.200,0.963636
988.300,0.963668
988.400,0.963686
988.500,0.963722
988.600,0.963755
988.700,0.963789
988.800,0.963824
988.900,0.963857
989.000,0.963893
989.100,0.963931
989.200,0.963948
989.300,0.963983
989.400,0.964018
989.500,0.964049
989.600,0.964084
989.700,0.964119
989.800,0.964151
989.900,0.964185
990.000,0.964203
990.100,0.964236
990.200,0.964271
990.300,0.964305
990.400,0.964336
990.500,0.964371
990.600,0.964404
990.700,0.964443
990.800,0.964461
990.900,0.964492
991.000,0.964526
991.100,0.964560
991.200,0.964592
991.300,0.964627
991.400,0.964659
991.500,0.964691
991.600,0.964709
991.700,0.964743
991.800,0.964768
991.900,0.964802
992.000,0.964835
992.100,0.964867
992.200,0.964899
992.300,0.964911
992.400,0.964943
992.500,0.964977
992.600,0.965008
992.700,0.965040
992.800,0.965069
992.900,0.965102
993.000,0.965131
993.100,0.965148
993.200,0.965182
993.300,0.965208
993.400,0.965240
993.500,0.965271
993.600,0.965304
993.700,0.965337
993.800,0.965362
993.900,0.965378
994.000,0.965411
994.100,0.965442
994.200,0.965473
994.300,0.965501
994.400,0.965532
994.500,0.965563
994.600,0.965596
994.700,0.965611
994.800,0.965638
994.900,0.965667
995.000,0.965700
995.100,0.965732
995.200,0.965763
995.300,0.965788
995.400,0.965821
995.500,0.965836
995.600,0.965868
995.700,0.965897
995.800,0.965923
995.900,0.965956
996.000,0.965986
996.100,0.966016
996.200,0.966048
996.300,0.966063
996.400,0.966088
996.500,0.966118
996.600,0.966150
996.700,0.966180
996.800,0.966210
996.900,0.966237
997.000,0.966265
997.100,0.966281
997.200,0.966313
997.300,0.966341
997.400,0.966367
997.500,0.966399
997.600,0.966426
997.700,0.966458
997.800,0.966488
997.900,0.966499
998.000,0.966528
998.100,0.966558
998.200,0.966589
998.300,0.966617
998.400,0.966643
998.500,0.966674
998.600,0.966701
998.700,0.966717
998.800,0.966748
998.900,0.966771
999.000,0.966802
999.100,0.966831
999.200,0.966860
999.300,0.966891
999.400,0.966900
999.500,0.966928
999.600,0.966957
999.700,0.966986
999.800,0.967015
999.900,0.967041
1000.000,0.967070