Wavelength,Reflectance
400.000,0.815387
400.100,0.815357
400.200,0.815330
400.300,0.815300
400.400,0.815273
400.500,0.815244
400.600,0.815216
400.700,0.815187
400.800,0.815158
400.900,0.815131
401.000,0.815102
401.100,0.815077
401.200,0.815051
401.300,0.815027
401.400,0.815000
401.500,0.814973
401.600,0.814949
401.700,0.814923
401.800,0.814899
401.900,0.814872
402.000,0.814848
402.100,0.814822
402.200,0.814799
402.300,0.814772
402.400,0.814748
402.500,0.814722
402.600,0.814699
402.700,0.814675
402.800,0.814654
402.900,0.814630
403.000,0.814610
403.100,0.814586
403.200,0.814565
403.300,0.814541
403.400,0.814520
403.500,0.814496
403.600,0.814476
403.700,0.814452
403.800,0.814432
403.900,0.814408
404.000,0.814387
404.100,0.814364
404.200,0.814344
404.300,0.814323
404.400,0.814305
404.500,0.814284
404.600,0.814265
404.700,0.814245
404.800,0.814226
404.900,0.814205
405.000,0.814187
405.100,0.814167
405.200,0.814149
405.300,0.814131
405.400,0.814110
405.500,0.814092
405.600,0.814071
405.700,0.814054
405.800,0.814034
405.900,0.814018
406.000,0.814000
406.100,0.813984
406.200,0.813966
406.300,0.813950
406.400,0.813932
406.500,0.813916
406.600,0.813898
406.700,0.813882
406.800,0.813864
406.900,0.813849
407.000,0.813831
407.100,0.813815
407.200,0.813797
407.300,0.813781
407.400,0.813765
407.500,0.813751
407.600,0.813735
407.700,0.813722
407.800,0.813706
407.900,0.813693
408.000,0.813677
408.100,0.813663
408.200,0.813648
408.300,0.813634
408.400,0.813619
408.500,0.813605
408.600,0.813592
408.700,0.813577
408.800,0.813564
408.900,0.813548
409.000,0.813536
409.100,0.813522
409.200,0.813511
409.300,0.813497
409.400,0.813486
409.500,0.813472
409.600,0.813461
409.700,0.813448
409.800,0.813436
409.900,0.813423
410.000,0.813412
410.100,0.813398
410.200,0.813387
410.300,0.813373
410.400,0.813363
410.500,0.813349
410.600,0.813339
410.700,0.813327
410.800,0.813318
410.900,0.813307
411.000,0.813298
411.100,0.813286
411.200,0.813277
411.300,0.813264
411.400,0.813255
411.500,0.813244
411.600,0.813235
411.700,0.813226
411.800,0.813214
411.900,0.813205
412.000,0.813193
412.100,0.813184
412.200,0.813174
412.300,0.813166
412.400,0.813156
412.500,0.813149
412.600,0.813139
412.700,0.813131
412.800,0.813121
412.900,0.813114
413.000,0.813103
413.100,0.813096
413.200,0.813086
413.300,0.813079
413.400,0.813069
413.500,0.813061
413.600,0.813051
413.700,0.813044
413.800,0.813035
413.900,0.813030
414.000,0.813021
414.100,0.813015
414.200,0.813007
414.300,0.813001
414.400,0.812992
414.500,0.812986
414.600,0.812978
414.700,0.812972
414.800,0.812963
414.900,0.812957
415.000,0.812951
415.100,0.812943
415.200,0.812937
415.300,0.812932
415.400,0.812925
415.500,0.812920
415.600,0.812915
415.700,0.812911
415.800,0.812904
415.900,0.812899
416.000,0.812895
416.100,0.812887
416.200,0.812883
416.300,0.812878
416.400,0.812871
416.500,0.812867
416.600,0.812862
416.700,0.812855
416.800,0.812851
416.900,0.812847
417.000,0.812843
417.100,0.812837
417.200,0.812834
417.300,0.812830
417.400,0.812824
417.500,0.812821
417.600,0.812817
417.700,0.812811
417.800,0.812808
417.900,0.812804
418.000,0.812798
418.100,0.812795
418.200,0.812792
418.300,0.812788
418.400,0.812782
418.500,0.812779
418.600,0.812777
418.700,0.812772
418.800,0.812769
418.900,0.812767
419.000,0.812762
419.100,0.812760
419.200,0.812757
419.300,0.812752
419.400,0.812750
419.500,0.812747
419.600,0.812745
419.700,0.812740
419.800,0.812737
419.900,0.812735
420.000,0.812730
420.100,0.812728
420.200,0.812727
420.300,0.812723
420.400,0.812722
420.500,0.812720
420.600,0.812715
420.700,0.812714
420.800,0.812712
420.900,0.812711
421.000,0.812706
421.100,0.812705
421.200,0.812703
421.300,0.812699
421.400,0.812697
421.500,0.812695
421.600,0.812691
421.700,0.812691
421.800,0.812690
421.900,0.812689
422.000,0.812686
422.100,0.812685
422.200,0.812684
422.300,0.812680
422.400,0.812679
422.500,0.812678
422.600,0.812675
422.700,0.812674
422.800,0.812673
422.900,0.812669
423.000,0.812668
423.100,0.812668
423.200,0.812667
423.300,0.812664
423.400,0.812664
423.500,0.812663
423.600,0.812660
423.700,0.812660
423.800,0.812660
423.900,0.812656
424.000,0.812656
424.100,0.812656
424.200,0.812653
424.300,0.812653
424.400,0.812652
424.500,0.812652
424.600,0.812649
424.700,0.812648
424.800,0.812648
424.900,0.812645
425.000,0.812645
425.100,0.812646
425.200,0.812644
425.300,0.812643
425.400,0.812644
425.500,0.812641
425.600,0.812641
425.700,0.812641
425.800,0.812641
425.900,0.812639
426.000,0.812639
426.100,0.812638
426.200,0.812636
426.300,0.812636
426.400,0.812636
426.500,0.812634
426.600,0.812634
426.700,0.812635
426.800,0.812633
426.900,0.812633
427.000,0.812633
427.100,0.812634
427.200,0.812632
427.300,0.812632
427.400,0.812633
427.500,0.812630
427.600,0.812631
427.700,0.812631
427.800,0.812631
427.900,0.812631
428.000,0.812632
428.100,0.812632
428.200,0.812631
428.300,0.812631
428.400,0.812632
428.500,0.812632
428.600,0.812633
428.700,0.812634
428.800,0.812635
428.900,0.812636
429.000,0.812636
429.100,0.812636
429.200,0.812637
429.300,0.812637
429.400,0.812635
429.500,0.812635
429.600,0.812636
429.700,0.812637
429.800,0.812638
429.900,0.812639
430.000,0.812640
430.100,0.812640
430.200,0.812641
430.300,0.812641
430.400,0.812643
430.500,0.812643
430.600,0.812641
430.700,0.812642
430.800,0.812643
430.900,0.812643
431.000,0.812644
431.100,0.812644
431.200,0.812645
431.300,0.812646
431.400,0.812647
431.500,0.812648
431.600,0.812649
431.700,0.812649
431.800,0.812648
431.900,0.812649
432.000,0.812649
432.100,0.812650
432.200,0.812650
432.300,0.812651
432.400,0.812652
432.500,0.812652
432.600,0.812653
432.700,0.812654
432.800,0.812655
432.900,0.812655
433.000,0.812654
433.100,0.812654
433.200,0.812655
433.300,0.812656
433.400,0.812657
433.500,0.812658
433.600,0.812658
433.700,0.812659
433.800,0.812659
433.900,0.812660
434.000,0.812661
434.100,0.812661
434.200,0.812659
434.300,0.812659
434.400,0.812660
434.500,0.812661
434.600,0.812662
434.700,0.812663
434.800,0.812664
434.900,0.812664
435.000,0.812665
435.100,0.812665
435.200,0.812666
435.300,0.812667
435.400,0.812665
435.500,0.812665
435.600,0.812666
435.700,0.812666
435.800,0.812667
435.900,0.812667
436.000,0.812668
436.100,0.812669
436.200,0.812669
436.300,0.812670
436.400,0.812671
436.500,0.812671
436.600,0.812669
436.700,0.812670
436.800,0.812670
436.900,0.812670
437.000,0.812671
437.100,0.812671
437.200,0.812672
437.300,0.812672
437.400,0.812672
437.500,0.812673
437.600,0.812673
437.700,0.812674
437.800,0.812671
437.900,0.812672
438.000,0.812672
438.100,0.812672
438.200,0.812673
438.300,0.812673
438.400,0.812673
438.500,0.812674
438.600,0.812674
438.700,0.812675
438.800,0.812675
438.900,0.812675
439.000,0.812672
439.100,0.812672
439.200,0.812672
439.300,0.812673
439.400,0.812673
439.500,0.812673
439.600,0.812674
439.700,0.812673
439.800,0.812674
439.900,0.812671
440.000,0.812671
440.100,0.812671
440.200,0.812671
440.300,0.812672
440.400,0.812671
440.500,0.812671
440.600,0.812669
440.700,0.812669
440.800,0.812669
440.900,0.812669
441.000,0.812669
441.100,0.812669
441.200,0.812669
441.300,0.812666
441.400,0.812666
441.500,0.812666
441.600,0.812666
441.700,0.812665
441.800,0.812665
441.900,0.812665
442.000,0.812662
442.100,0.812662
442.200,0.812661
442.300,0.812661
442.400,0.812661
442.500,0.812661
442.600,0.812660
442.700,0.812657
442.800,0.812657
442.900,0.812657
443.000,0.812657
443.100,0.812656
443.200,0.812656
443.300,0.812656
443.400,0.812653
443.500,0.812652
443.600,0.812651
443.700,0.812651
443.800,0.812651
443.900,0.812650
444.000,0.812649
444.100,0.812646
444.200,0.812646
444.300,0.812646
444.400,0.812645
444.500,0.812644
444.600,0.812643
444.700,0.812643
444.800,0.812640
444.900,0.812639
445.000,0.812638
445.100,0.812638
445.200,0.812637
445.300,0.812637
445.400,0.812636
445.500,0.812632
445.600,0.812631
445.700,0.812631
445.800,0.812630
445.900,0.812629
446.000,0.812628
446.100,0.812628
446.200,0.812627
446.300,0.812623
446.400,0.812622
446.500,0.812621
446.600,0.812621
446.700,0.812619
446.800,0.812618
446.900,0.812617
447.000,0.812614
447.100,0.812613
447.200,0.812612
447.300,0.812610
447.400,0.812609
447.500,0.812609
447.600,0.812608
447.700,0.812604
447.800,0.812603
447.900,0.812602
448.000,0.812600
448.100,0.812599
448.200,0.812598
448.300,0.812597
448.400,0.812593
448.500,0.812592
448.600,0.812590
448.700,0.812589
448.800,0.812588
448.900,0.812587
449.000,0.812585
449.100,0.812581
449.200,0.812580
449.300,0.812579
449.400,0.812577
449.500,0.812576
449.600,0.812575
449.700,0.812573
449.800,0.812569
449.900,0.812567
450.000,0.812566
450.100,0.812565
450.200,0.812563
450.300,0.812561
450.400,0.812560
450.500,0.812556
450.600,0.812554
450.700,0.812552
450.800,0.812551
450.900,0.812550
451.000,0.812548
451.100,0.812546
451.200,0.812542
451.300,0.812541
451.400,0.812539
451.500,0.812537
451.600,0.812535
451.700,0.812534
451.800,0.812532
451.900,0.812527
452.000,0.812526
452.100,0.812524
452.200,0.812522
452.300,0.812520
452.400,0.812516
452.500,0.812514
452.600,0.812512
452.700,0.812510
452.800,0.812506
452.900,0.812504
453.000,0.812502
453.100,0.812500
453.200,0.812495
453.300,0.812493
453.400,0.812492
453.500,0.812489
453.600,0.812485
453.700,0.812483
453.800,0.812480
453.900,0.812476
454.000,0.812474
454.100,0.812472
454.200,0.812470
454.300,0.812465
454.400,0.812463
454.500,0.812461
454.600,0.812459
454.700,0.812454
454.800,0.812452
454.900,0.812450
455.000,0.812445
455.100,0.812443
455.200,0.812440
455.300,0.812438
455.400,0.812433
455.500,0.812431
455.600,0.812429
455.700,0.812426
455.800,0.812421
455.900,0.812419
456.000,0.812416
456.100,0.812414
456.200,0.812409
456.300,0.812407
456.400,0.812404
456.500,0.812399
456.600,0.812396
456.700,0.812394
456.800,0.812391
456.900,0.812386
457.000,0.812384
457.100,0.812381
457.200,0.812378
457.300,0.812373
457.400,0.812371
457.500,0.812368
457.600,0.812363
457.700,0.812360
457.800,0.812357
457.900,0.812355
458.000,0.812350
458.100,0.812347
458.200,0.812344
458.300,0.812341
458.400,0.812336
458.500,0.812333
458.600,0.812330
458.700,0.812327
458.800,0.812322
458.900,0.812319
459.000,0.812316
459.100,0.812310
459.200,0.812307
459.300,0.812305
459.400,0.812302
459.500,0.812296
459.600,0.812293
459.700,0.812290
459.800,0.812287
459.900,0.812281
460.000,0.812278
460.100,0.812275
460.200,0.812269
460.300,0.812266
460.400,0.812262
460.500,0.812259
460.600,0.812253
460.700,0.812250
460.800,0.812247
460.900,0.812244
461.000,0.812238
461.100,0.812235
461.200,0.812232
461.300,0.812228
461.400,0.812222
461.500,0.812219
461.600,0.812215
461.700,0.812208
461.800,0.812205
461.900,0.812202
462.000,0.812198
462.100,0.812192
462.200,0.812188
462.300,0.812184
462.400,0.812181
462.500,0.812175
462.600,0.812171
462.700,0.812168
462.800,0.812161
462.900,0.812157
463.000,0.812153
463.100,0.812149
463.200,0.812143
463.300,0.812139
463.400,0.812135
463.500,0.812131
463.600,0.812124
463.700,0.812120
463.800,0.812116
463.900,0.812112
464.000,0.812105
464.100,0.812102
464.200,0.812098
464.300,0.812093
464.400,0.812089
464.500,0.812085
464.600,0.812083
464.700,0.812078
464.800,0.812074
464.900,0.812070
465.000,0.812065
465.100,0.812061
465.200,0.812056
465.300,0.812052
465.400,0.812047
465.500,0.812043
465.600,0.812041
465.700,0.812036
465.800,0.812032
465.900,0.812027
466.000,0.812023
466.100,0.812018
466.200,0.812012
466.300,0.812008
466.400,0.812003
466.500,0.811997
466.600,0.811995
466.700,0.811990
466.800,0.811984
466.900,0.811979
467.000,0.811974
467.100,0.811969
467.200,0.811964
467.300,0.811959
467.400,0.811954
467.500,0.811949
467.600,0.811946
467.700,0.811940
467.800,0.811934
467.900,0.811929
468.000,0.811923
468.100,0.811917
468.200,0.811911
468.300,0.811906
468.400,0.811900
468.500,0.811894
468.600,0.811891
468.700,0.811885
468.800,0.811879
468.900,0.811873
469.000,0.811867
469.100,0.811862
469.200,0.811856
469.300,0.811849
469.400,0.811843
469.500,0.811836
469.600,0.811832
469.700,0.811826
469.800,0.811819
469.900,0.811812
470.000,0.811806
470.100,0.811800
470.200,0.811793
470.300,0.811786
470.400,0.811779
470.500,0.811773
470.600,0.811769
470.700,0.811762
470.800,0.811755
470.900,0.811748
471.000,0.811740
471.100,0.811733
471.200,0.811726
471.300,0.811718
471.400,0.811710
471.500,0.811703
471.600,0.811698
471.700,0.811690
471.800,0.811683
471.900,0.811675
472.000,0.811668
472.100,0.811660
472.200,0.811653
472.300,0.811645
472.400,0.811638
472.500,0.811629
472.600,0.811623
472.700,0.811615
472.800,0.811606
472.900,0.811598
473.000,0.811589
473.100,0.811580
473.200,0.811572
473.300,0.811563
473.400,0.811555
473.500,0.811546
473.600,0.811540
473.700,0.811532
473.800,0.811523
473.900,0.811515
474.000,0.811506
474.100,0.811496
474.200,0.811486
474.300,0.811476
474.400,0.811467
474.500,0.811457
474.600,0.811450
474.700,0.811440
474.800,0.811430
474.900,0.811421
475.000,0.811411
475.100,0.811401
475.200,0.811391
475.300,0.811382
475.400,0.811372
475.500,0.811362
475.600,0.811355
475.700,0.811343
475.800,0.811333
475.900,0.811321
476.000,0.811310
476.100,0.811299
476.200,0.811288
476.300,0.811278
476.400,0.811266
476.500,0.811255
476.600,0.811244
476.700,0.811233
476.800,0.811222
476.900,0.811211
477.000,0.811200
477.100,0.811189
477.200,0.811175
477.300,0.811162
477.400,0.811150
477.500,0.811137
477.600,0.811125
477.700,0.811112
477.800,0.811100
477.900,0.811087
478.000,0.811075
478.100,0.811062
478.200,0.811050
478.300,0.811037
478.400,0.811024
478.500,0.811013
478.600,0.811000
478.700,0.810987
478.800,0.810974
478.900,0.810960
479.000,0.810946
479.100,0.810932
479.200,0.810917
479.300,0.810904
479.400,0.810890
479.500,0.810873
479.600,0.810859
479.700,0.810845
479.800,0.810830
479.900,0.810817
480.000,0.810803
480.100,0.810789
480.200,0.810775
480.300,0.810760
480.400,0.810746
480.500,0.810730
480.600,0.810714
480.700,0.810698
480.800,0.810683
480.900,0.810667
481.000,0.810651
481.100,0.810635
481.200,0.810620
481.300,0.810603
481.400,0.810588
481.500,0.810572
481.600,0.810556
481.700,0.810538
481.800,0.810522
481.900,0.810506
482.000,0.810489
482.100,0.810472
482.200,0.810455
482.300,0.810437
482.400,0.810419
482.500,0.810401
482.600,0.810384
482.700,0.810367
482.800,0.810349
482.900,0.810331
483.000,0.810314
483.100,0.810296
483.200,0.810279
483.300,0.810261
483.400,0.810243
483.500,0.810226
483.600,0.810207
483.700,0.810188
483.800,0.810168
483.900,0.810149
484.000,0.810127
484.100,0.810108
484.200,0.810088
484.300,0.810069
484.400,0.810049
484.500,0.810030
484.600,0.810010
484.700,0.809991
484.800,0.809972
484.900,0.809952
485.000,0.809933
485.100,0.809914
485.200,0.809892
485.300,0.809871
485.400,0.809849
485.500,0.809828
485.600,0.809807
485.700,0.809786
485.800,0.809765
485.900,0.809743
486.000,0.809722
486.100,0.809700
486.200,0.809679
486.300,0.809656
486.400,0.809634
486.500,0.809613
486.600,0.809591
486.700,0.809570
486.800,0.809547
486.900,0.809524
487.000,0.809501
487.100,0.809477
487.200,0.809454
487.300,0.809431
487.400,0.809408
487.500,0.809385
487.600,0.809362
487.700,0.809339
487.800,0.809316
487.900,0.809293
488.000,0.809269
488.100,0.809246
488.200,0.809223
488.300,0.809200
488.400,0.809175
488.500,0.809148
488.600,0.809123
488.700,0.809097
488.800,0.809073
488.900,0.809048
489.000,0.809023
489.100,0.808998
489.200,0.808973
489.300,0.808948
489.400,0.808923
489.500,0.808898
489.600,0.808873
489.700,0.808848
489.800,0.808824
489.900,0.808796
490.000,0.808769
490.100,0.808742
490.200,0.808715
490.300,0.808687
490.400,0.808660
490.500,0.808633
490.600,0.808607
490.700,0.808578
490.800,0.808551
490.900,0.808524
491.000,0.808498
491.100,0.808471
491.200,0.808443
491.300,0.808416
491.400,0.808389
491.500,0.808362
491.600,0.808332
491.700,0.808304
491.800,0.808275
491.900,0.808247
492.000,0.808217
492.100,0.808188
492.200,0.808161
492.300,0.808132
492.400,0.808105
492.500,0.808074
492.600,0.808046
492.700,0.808018
492.800,0.807990
492.900,0.807959
493.000,0.807931
493.100,0.807903
493.200,0.807874
493.300,0.807844
493.400,0.807813
493.500,0.807783
493.600,0.807754
493.700,0.807725
493.800,0.807693
493.900,0.807664
494.000,0.807635
494.100,0.807606
494.200,0.807574
494.300,0.807545
494.400,0.807516
494.500,0.807487
494.600,0.807458
494.700,0.807425
494.800,0.807395
494.900,0.807365
495.000,0.807335
495.100,0.807302
495.200,0.807272
495.300,0.807242
495.400,0.807212
495.500,0.807179
495.600,0.807149
495.700,0.807119
495.800,0.807089
495.900,0.807059
496.000,0.807026
496.100,0.806997
496.200,0.806967
496.300,0.806936
496.400,0.806903
496.500,0.806872
496.600,0.806842
496.700,0.806811
496.800,0.806778
496.900,0.806748
497.000,0.806717
497.100,0.806687
497.200,0.806656
497.300,0.806623
497.400,0.806592
497.500,0.806562
497.600,0.806531
497.700,0.806498
497.800,0.806468
497.900,0.806437
498.000,0.806406
498.100,0.806376
498.200,0.806343
498.300,0.806312
498.400,0.806281
498.500,0.806250
498.600,0.806216
498.700,0.806186
498.800,0.806155
498.900,0.806125
499.000,0.806091
499.100,0.806061
499.200,0.806030
499.300,0.805999
499.400,0.805968
499.500,0.805935
499.600,0.805904
499.700,0.805874
499.800,0.805843
499.900,0.805809
500.000,0.805779
500.100,0.805748
500.200,0.805718
500.300,0.805684
500.400,0.805653
500.500,0.805623
500.600,0.805592
500.700,0.805562
500.800,0.805528
500.900,0.805498
501.000,0.805467
501.100,0.805437
501.200,0.805404
501.300,0.805374
501.400,0.805344
501.500,0.805313
501.600,0.805280
501.700,0.805250
501.800,0.805220
501.900,0.805190
502.000,0.805159
502.100,0.805126
502.200,0.805096
502.300,0.805066
502.400,0.805036
502.500,0.805003
502.600,0.804972
502.700,0.804943
502.800,0.804913
502.900,0.804881
503.000,0.804851
503.100,0.804822
503.200,0.804792
503.300,0.804762
503.400,0.804730
503.500,0.804700
503.600,0.804671
503.700,0.804641
503.800,0.804609
503.900,0.804579
504.000,0.804549
504.100,0.804519
504.200,0.804490
504.300,0.804458
504.400,0.804429
504.500,0.804400
504.600,0.804371
504.700,0.804340
504.800,0.804311
504.900,0.804282
505.000,0.804253
505.100,0.804221
505.200,0.804192
505.300,0.804163
505.400,0.804134
505.500,0.804105
505.600,0.804073
505.700,0.804044
505.800,0.804014
505.900,0.803987
506.000,0.803955
506.100,0.803927
506.200,0.803899
506.300,0.803871
506.400,0.803840
506.500,0.803812
506.600,0.803784
506.700,0.803755
506.800,0.803727
506.900,0.803696
507.000,0.803667
507.100,0.803639
507.200,0.803610
507.300,0.803579
507.400,0.803551
507.500,0.803523
507.600,0.803496
507.700,0.803469
507.800,0.803438
507.900,0.803411
508.000,0.803384
508.100,0.803356
508.200,0.803326
508.300,0.803299
508.400,0.803271
508.500,0.803243
508.600,0.803215
508.700,0.803185
508.800,0.803157
508.900,0.803129
509.000,0.803101
509.100,0.803072
509.200,0.803045
509.300,0.803019
509.400,0.802992
509.500,0.802965
509.600,0.802936
509.700,0.802909
509.800,0.802882
509.900,0.802855
510.000,0.802828
510.100,0.802798
510.200,0.802771
510.300,0.802744
510.400,0.802717
510.500,0.802687
510.600,0.802660
510.700,0.802634
510.800,0.802608
510.900,0.802582
511.000,0.802554
511.100,0.802527
511.200,0.802501
511.300,0.802475
511.400,0.802446
511.500,0.802420
511.600,0.802394
511.700,0.802367
511.800,0.802340
511.900,0.802311
512.000,0.802284
512.100,0.802258
512.200,0.802232
512.300,0.802204
512.400,0.802178
512.500,0.802153
512.600,0.802127
512.700,0.802102
512.800,0.802073
512.900,0.802048
513.000,0.802022
513.100,0.801996
513.200,0.801967
513.300,0.801941
513.400,0.801915
513.500,0.801889
513.600,0.801863
513.700,0.801834
513.800,0.801808
513.900,0.801784
514.000,0.801759
514.100,0.801731
514.200,0.801706
514.300,0.801681
514.400,0.801656
514.500,0.801631
514.600,0.801603
514.700,0.801578
514.800,0.801552
514.900,0.801527
515.000,0.801498
515.100,0.801473
515.200,0.801447
515.300,0.801421
515.400,0.801396
515.500,0.801369
515.600,0.801345
515.700,0.801321
515.800,0.801296
515.900,0.801268
516.000,0.801244
516.100,0.801219
516.200,0.801194
516.300,0.801169
516.400,0.801141
516.500,0.801116
516.600,0.801091
516.700,0.801066
516.800,0.801040
516.900,0.801012
517.000,0.800988
517.100,0.800964
517.200,0.800940
517.300,0.800913
517.400,0.800889
517.500,0.800864
517.600,0.800840
517.700,0.800815
517.800,0.800788
517.900,0.800763
518.000,0.800739
518.100,0.800714
518.200,0.800687
518.300,0.800661
518.400,0.800636
518.500,0.800611
518.600,0.800587
518.700,0.800561
518.800,0.800537
518.900,0.800513
519.000,0.800489
519.100,0.800462
519.200,0.800438
519.300,0.800414
519.400,0.800390
519.500,0.800365
519.600,0.800338
519.700,0.800313
519.800,0.800289
519.900,0.800264
520.000,0.800237
520.100,0.800212
520.200,0.800188
520.300,0.800165
520.400,0.800141
520.500,0.800114
520.600,0.800090
520.700,0.800066
520.800,0.800042
520.900,0.800016
521.000,0.799991
521.100,0.799967
521.200,0.799943
521.300,0.799918
521.400,0.799891
521.500,0.799867
521.600,0.799842
521.700,0.799817
521.800,0.799791
521.900,0.799767
522.000,0.799744
522.100,0.799720
522.200,0.799696
522.300,0.799669
522.400,0.799645
522.500,0.799621
522.600,0.799597
522.700,0.799570
522.800,0.799546
522.900,0.799522
523.000,0.799497
523.100,0.799473
523.200,0.799445
523.300,0.799421
523.400,0.799397
523.500,0.799374
523.600,0.799350
523.700,0.799323
523.800,0.799299
523.900,0.799275
524.000,0.799251
524.100,0.799224
524.200,0.799200
524.300,0.799175
524.400,0.799151
524.500,0.799126
524.600,0.799099
524.700,0.799075
524.800,0.799050
524.900,0.799026
525.000,0.798999
525.100,0.798975
525.200,0.798951
525.300,0.798927
525.400,0.798903
525.500,0.798876
525.600,0.798851
525.700,0.798827
525.800,0.798803
525.900,0.798776
526.000,0.798751
526.100,0.798726
526.200,0.798702
526.300,0.798674
526.400,0.798649
526.500,0.798625
526.600,0.798600
526.700,0.798573
526.800,0.798549
526.900,0.798525
527.000,0.798501
527.100,0.798473
527.200,0.798448
527.300,0.798424
527.400,0.798399
527.500,0.798372
527.600,0.798347
527.700,0.798322
527.800,0.798297
527.900,0.798269
528.000,0.798244
528.100,0.798220
528.200,0.798195
528.300,0.798167
528.400,0.798143
528.500,0.798118
528.600,0.798093
528.700,0.798065
528.800,0.798040
528.900,0.798015
529.000,0.797990
529.100,0.797962
529.200,0.797937
529.300,0.797912
529.400,0.797887
529.500,0.797858
529.600,0.797832
529.700,0.797807
529.800,0.797782
529.900,0.797754
530.000,0.797729
530.100,0.797703
530.200,0.797678
530.300,0.797649
530.400,0.797624
530.500,0.797599
530.600,0.797573
530.700,0.797544
530.800,0.797518
530.900,0.797492
531.000,0.797467
531.100,0.797438
531.200,0.797411
531.300,0.797385
531.400,0.797356
531.500,0.797331
531.600,0.797305
531.700,0.797279
531.800,0.797250
531.900,0.797224
532.000,0.797198
532.100,0.797172
532.200,0.797142
532.300,0.797116
532.400,0.797090
532.500,0.797063
532.600,0.797034
532.700,0.797007
532.800,0.796981
532.900,0.796954
533.000,0.796924
533.100,0.796897
533.200,0.796870
533.300,0.796844
533.400,0.796813
533.500,0.796786
533.600,0.796759
533.700,0.796732
533.800,0.796702
533.900,0.796675
534.000,0.796648
534.100,0.796620
534.200,0.796590
534.300,0.796562
534.400,0.796535
534.500,0.796507
534.600,0.796476
534.700,0.796448
534.800,0.796421
534.900,0.796393
535.000,0.796362
535.100,0.796333
535.200,0.796306
535.300,0.796278
535.400,0.796246
535.500,0.796218
535.600,0.796189
535.700,0.796161
535.800,0.796130
535.900,0.796101
536.000,0.796072
536.100,0.796043
536.200,0.796012
536.300,0.795983
536.400,0.795954
536.500,0.795922
536.600,0.795892
536.700,0.795863
536.800,0.795833
536.900,0.795801
537.000,0.795771
537.100,0.795742
537.200,0.795712
537.300,0.795679
537.400,0.795650
537.500,0.795620
537.600,0.795589
537.700,0.795556
537.800,0.795526
537.900,0.795496
538.000,0.795464
538.100,0.795431
538.200,0.795400
538.300,0.795369
538.400,0.795337
538.500,0.795303
538.600,0.795272
538.700,0.795241
538.800,0.795210
538.900,0.795175
539.000,0.795143
539.100,0.795112
539.200,0.795080
539.300,0.795045
539.400,0.795012
539.500,0.794980
539.600,0.794947
539.700,0.794912
539.800,0.794879
539.900,0.794846
540.000,0.794813
540.100,0.794777
540.200,0.794743
540.300,0.794710
540.400,0.794676
540.500,0.794639
540.600,0.794606
540.700,0.794572
540.800,0.794538
540.900,0.794501
541.000,0.794466
541.100,0.794431
541.200,0.794396
541.300,0.794358
541.400,0.794322
541.500,0.794286
541.600,0.794247
541.700,0.794211
541.800,0.794176
541.900,0.794139
542.000,0.794100
542.100,0.794064
542.200,0.794027
542.300,0.793991
542.400,0.793952
542.500,0.793913
542.600,0.793876
542.700,0.793838
542.800,0.793796
542.900,0.793757
543.000,0.793718
543.100,0.793679
543.200,0.793637
543.300,0.793597
543.400,0.793557
543.500,0.793517
543.600,0.793475
543.700,0.793434
543.800,0.793394
543.900,0.793354
544.000,0.793311
544.100,0.793269
544.200,0.793227
544.300,0.793185
544.400,0.793139
544.500,0.793096
544.600,0.793053
544.700,0.793009
544.800,0.792962
544.900,0.792918
545.000,0.792874
545.100,0.792829
545.200,0.792782
545.300,0.792738
545.400,0.792693
545.500,0.792648
545.600,0.792599
545.700,0.792553
545.800,0.792507
545.900,0.792459
546.000,0.792408
546.100,0.792360
546.200,0.792312
546.300,0.792263
546.400,0.792211
546.500,0.792162
546.600,0.792112
546.700,0.792063
546.800,0.792013
546.900,0.791963
547.000,0.791913
547.100,0.791863
547.200,0.791809
547.300,0.791756
547.400,0.791704
547.500,0.791652
547.600,0.791598
547.700,0.791542
547.800,0.791488
547.900,0.791433
548.000,0.791378
548.100,0.791323
548.200,0.791266
548.300,0.791210
548.400,0.791154
548.500,0.791098
548.600,0.791037
548.700,0.790980
548.800,0.790923
548.900,0.790864
549.000,0.790805
549.100,0.790745
549.200,0.790684
549.300,0.790622
549.400,0.790560
549.500,0.790498
549.600,0.790435
549.700,0.790372
549.800,0.790309
549.900,0.790242
550.000,0.790179
550.100,0.790114
550.200,0.790050
550.300,0.789984
550.400,0.789919
550.500,0.789853
550.600,0.789786
550.700,0.789718
550.800,0.789648
550.900,0.789577
551.000,0.789507
551.100,0.789435
551.200,0.789360
551.300,0.789288
551.400,0.789216
551.500,0.789143
551.600,0.789070
551.700,0.788996
551.800,0.788922
551.900,0.788848
552.000,0.788773
552.100,0.788697
552.200,0.788620
552.300,0.788543
552.400,0.788463
552.500,0.788382
552.600,0.788297
552.700,0.788217
552.800,0.788135
552.900,0.788052
553.000,0.787969
553.100,0.787886
553.200,0.787802
553.300,0.787717
553.400,0.787633
553.500,0.787548
553.600,0.787461
553.700,0.787375
553.800,0.787287
553.900,0.787193
554.000,0.787102
554.100,0.787010
554.200,0.786917
554.300,0.786824
554.400,0.786731
554.500,0.786636
554.600,0.786541
554.700,0.786446
554.800,0.786350
554.900,0.786252
555.000,0.786155
555.100,0.786058
555.200,0.785955
555.300,0.785856
555.400,0.785755
555.500,0.785652
555.600,0.785548
555.700,0.785443
555.800,0.785338
555.900,0.785231
556.000,0.785123
556.100,0.785016
556.200,0.784907
556.300,0.784797
556.400,0.784688
556.500,0.784577
556.600,0.784463
556.700,0.784351
556.800,0.784238
556.900,0.784125
557.000,0.784011
557.100,0.783893
557.200,0.783774
557.300,0.783656
557.400,0.783535
557.500,0.783414
557.600,0.783293
557.700,0.783171
557.800,0.783047
557.900,0.782921
558.000,0.782796
558.100,0.782670
558.200,0.782543
558.300,0.782417
558.400,0.782289
558.500,0.782161
558.600,0.782032
558.700,0.781901
558.800,0.781766
558.900,0.781634
559.000,0.781498
559.100,0.781363
559.200,0.781222
559.300,0.781086
559.400,0.780947
559.500,0.780809
559.600,0.780669
559.700,0.780529
559.800,0.780387
559.900,0.780245
560.000,0.780103
560.100,0.779960
560.200,0.779814
560.300,0.779668
560.400,0.779521
560.500,0.779373
560.600,0.779220
560.700,0.779070
560.800,0.778920
560.900,0.778769
561.000,0.778616
561.100,0.778462
561.200,0.778307
561.300,0.778153
561.400,0.777997
561.500,0.777840
561.600,0.777685
561.700,0.777527
561.800,0.777370
561.900,0.777208
562.000,0.777048
562.100,0.776887
562.200,0.776726
562.300,0.776564
562.400,0.776402
562.500,0.776237
562.600,0.776074
562.700,0.775909
562.800,0.775742
562.900,0.775575
563.000,0.775408
563.100,0.775240
563.200,0.775068
563.300,0.774902
563.400,0.774734
563.500,0.774565
563.600,0.774398
563.700,0.774229
563.800,0.774058
563.900,0.773888
564.000,0.773717
564.100,0.773545
564.200,0.773373
564.300,0.773201
564.400,0.773027
564.500,0.772852
564.600,0.772675
564.700,0.772499
564.800,0.772327
564.900,0.772154
565.000,0.771981
565.100,0.771810
565.200,0.771639
565.300,0.771467
565.400,0.771298
565.500,0.771125
565.600,0.770952
565.700,0.770778
565.800,0.770605
565.900,0.770432
566.000,0.770257
566.100,0.770082
566.200,0.769909
566.300,0.769735
566.400,0.769564
566.500,0.769389
566.600,0.769222
566.700,0.769058
566.800,0.768892
566.900,0.768728
567.000,0.768563
567.100,0.768398
567.200,0.768234
567.300,0.768068
567.400,0.767902
567.500,0.767737
567.600,0.767573
567.700,0.767409
567.800,0.767243
567.900,0.767083
568.000,0.766923
568.100,0.766766
568.200,0.766614
568.300,0.766464
568.400,0.766317
568.500,0.766171
568.600,0.766023
568.700,0.765877
568.800,0.765729
568.900,0.765585
569.000,0.765440
569.100,0.765291
569.200,0.765146
569.300,0.765003
569.400,0.764863
569.500,0.764724
569.600,0.764586
569.700,0.764455
569.800,0.764332
569.900,0.764210
570.000,0.764093
570.100,0.763972
570.200,0.763857
570.300,0.763740
570.400,0.763624
570.500,0.763513
570.600,0.763399
570.700,0.763287
570.800,0.763176
570.900,0.763065
571.000,0.762960
571.100,0.762855
571.200,0.762756
571.300,0.762662
571.400,0.762575
571.500,0.762498
571.600,0.762417
571.700,0.762338
571.800,0.762264
571.900,0.762190
572.000,0.762114
572.100,0.762047
572.200,0.761975
572.300,0.761907
572.400,0.761846
572.500,0.761777
572.600,0.761717
572.700,0.761661
572.800,0.761609
572.900,0.761565
573.000,0.761524
573.100,0.761497
573.200,0.761471
573.300,0.761440
573.400,0.761418
573.500,0.761396
573.600,0.761371
573.700,0.761354
573.800,0.761332
573.900,0.761319
574.000,0.761309
574.100,0.761293
574.200,0.761283
574.300,0.761282
574.400,0.761284
574.500,0.761294
574.600,0.761308
574.700,0.761335
574.800,0.761363
574.900,0.761387
575.000,0.761418
575.100,0.761450
575.200,0.761480
575.300,0.761517
575.400,0.761552
575.500,0.761591
575.600,0.761637
575.700,0.761677
575.800,0.761724
575.900,0.761784
576.000,0.761837
576.100,0.761908
576.200,0.761974
576.300,0.762052
576.400,0.762134
576.500,0.762208
576.600,0.762292
576.700,0.762376
576.800,0.762454
576.900,0.762549
577.000,0.762631
577.100,0.762725
577.200,0.762824
577.300,0.762913
577.400,0.763013
577.500,0.763127
577.600,0.763229
577.700,0.763348
577.800,0.763470
577.900,0.763585
578.000,0.763711
578.100,0.763829
578.200,0.763958
578.300,0.764091
578.400,0.764212
578.500,0.764352
578.600,0.764485
578.700,0.764615
578.800,0.764754
578.900,0.764889
579.000,0.765030
579.100,0.765184
579.200,0.765326
579.300,0.765482
579.400,0.765638
579.500,0.765786
579.600,0.765949
579.700,0.766106
579.800,0.766260
579.900,0.766426
580.000,0.766580
580.100,0.766750
580.200,0.766916
580.300,0.767077
580.400,0.767247
580.500,0.767421
580.600,0.767585
580.700,0.767764
580.800,0.767945
580.900,0.768111
581.000,0.768288
581.100,0.768456
581.200,0.768637
581.300,0.768818
581.400,0.768988
581.500,0.769173
581.600,0.769355
581.700,0.769528
581.800,0.769712
581.900,0.769898
582.000,0.770074
582.100,0.770261
582.200,0.770440
582.300,0.770631
582.400,0.770824
582.500,0.770999
582.600,0.771185
582.700,0.771369
582.800,0.771543
582.900,0.771730
583.000,0.771914
583.100,0.772093
583.200,0.772279
583.300,0.772467
583.400,0.772646
583.500,0.772836
583.600,0.773016
583.700,0.773207
583.800,0.773397
583.900,0.773576
584.000,0.773765
584.100,0.773943
584.200,0.774113
584.300,0.774288
584.400,0.774466
584.500,0.774632
584.600,0.774811
584.700,0.774992
584.800,0.775159
584.900,0.775338
585.000,0.775509
585.100,0.775688
585.200,0.775871
585.300,0.776039
585.400,0.776221
585.500,0.776394
585.600,0.776554
585.700,0.776716
585.800,0.776877
585.900,0.777025
586.000,0.777186
586.100,0.777346
586.200,0.777496
586.300,0.777659
586.400,0.777810
586.500,0.777967
586.600,0.778130
586.700,0.778279
586.800,0.778442
586.900,0.778602
587.000,0.778754
587.100,0.778893
587.200,0.779038
587.300,0.779154
587.400,0.779288
587.500,0.779415
587.600,0.779536
587.700,0.779665
587.800,0.779798
587.900,0.779913
588.000,0.780046
588.100,0.780167
588.200,0.780296
588.300,0.780423
588.400,0.780543
588.500,0.780674
588.600,0.780801
588.700,0.780897
588.800,0.781005
588.900,0.781103
589.000,0.781185
589.100,0.781282
589.200,0.781380
589.300,0.781466
589.400,0.781565
589.500,0.781662
589.600,0.781749
589.700,0.781846
589.800,0.781944
589.900,0.782030
590.000,0.782125
590.100,0.782212
590.200,0.782304
590.300,0.782384
590.400,0.782454
590.500,0.782526
590.600,0.782596
590.700,0.782657
590.800,0.782730
590.900,0.782803
591.000,0.782863
591.100,0.782935
591.200,0.783006
591.300,0.783070
591.400,0.783141
591.500,0.783214
591.600,0.783273
591.700,0.783349
591.800,0.783412
591.900,0.783460
592.000,0.783515
592.100,0.783566
592.200,0.783605
592.300,0.783653
592.400,0.783707
592.500,0.783743
592.600,0.783799
592.700,0.783835
592.800,0.783890
592.900,0.783938
593.000,0.783980
593.100,0.784029
593.200,0.784084
593.300,0.784125
593.400,0.784173
593.500,0.784209
593.600,0.784231
593.700,0.784261
593.800,0.784299
593.900,0.784319
594.000,0.784354
594.100,0.784385
594.200,0.784411
594.300,0.784444
594.400,0.784480
594.500,0.784499
594.600,0.784538
594.700,0.784571
594.800,0.784594
594.900,0.784630
595.000,0.784658
595.100,0.784665
595.200,0.784690
595.300,0.784705
595.400,0.784715
595.500,0.784733
595.600,0.784753
595.700,0.784765
595.800,0.784785
595.900,0.784807
596.000,0.784814
596.100,0.784839
596.200,0.784860
596.300,0.784869
596.400,0.784889
596.500,0.784915
596.600,0.784916
596.700,0.784923
596.800,0.784934
596.900,0.784932
597.000,0.784944
597.100,0.784940
597.200,0.784951
597.300,0.784963
597.400,0.784961
597.500,0.784973
597.600,0.784985
597.700,0.784986
597.800,0.784998
597.900,0.785010
598.000,0.785010
598.100,0.785023
598.200,0.785028
598.300,0.785015
598.400,0.785017
598.500,0.785024
598.600,0.785017
598.700,0.785022
598.800,0.785029
598.900,0.785018
599.000,0.785026
599.100,0.785030
599.200,0.785025
599.300,0.785029
599.400,0.785038
599.500,0.785033
599.600,0.785042
599.700,0.785047
599.800,0.785035
599.900,0.785028
600.000,0.785030
600.100,0.785020
600.200,0.785025
600.300,0.785027
600.400,0.785023
600.500,0.785026
600.600,0.785031
600.700,0.785020
600.800,0.785026
600.900,0.785031
601.000,0.785024
601.100,0.785029
601.200,0.785037
601.300,0.785027
601.400,0.785032
601.500,0.785024
601.600,0.785019
601.700,0.785022
601.800,0.785033
601.900,0.785027
602.000,0.785032
602.100,0.785043
602.200,0.785035
602.300,0.785048
602.400,0.785052
602.500,0.785050
602.600,0.785061
602.700,0.785072
602.800,0.785069
602.900,0.785079
603.000,0.785087
603.100,0.785091
603.200,0.785092
603.300,0.785112
603.400,0.785130
603.500,0.785135
603.600,0.785150
603.700,0.785172
603.800,0.785176
603.900,0.785200
604.000,0.785221
604.100,0.785223
604.200,0.785245
604.300,0.785270
604.400,0.785277
604.500,0.785304
604.600,0.785322
604.700,0.785328
604.800,0.785362
604.900,0.785400
605.000,0.785417
605.100,0.785456
605.200,0.785493
605.300,0.785515
605.400,0.785552
605.500,0.785592
605.600,0.785620
605.700,0.785661
605.800,0.785702
605.900,0.785726
606.000,0.785772
606.100,0.785818
606.200,0.785845
606.300,0.785894
606.400,0.785961
606.500,0.786006
606.600,0.786069
606.700,0.786136
606.800,0.786188
606.900,0.786255
607.000,0.786328
607.100,0.786376
607.200,0.786450
607.300,0.786523
607.400,0.786600
607.500,0.786652
607.600,0.786730
607.700,0.786807
607.800,0.786875
607.900,0.786967
608.000,0.787073
608.100,0.787158
608.200,0.787268
608.300,0.787374
608.400,0.787468
608.500,0.787579
608.600,0.787691
608.700,0.787786
608.800,0.787901
608.900,0.788016
609.000,0.788116
609.100,0.788237
609.200,0.788360
609.300,0.788463
609.400,0.788608
609.500,0.788757
609.600,0.788899
609.700,0.789063
609.800,0.789224
609.900,0.789373
610.000,0.789535
610.100,0.789709
610.200,0.789878
610.300,0.790037
610.400,0.790211
610.500,0.790393
610.600,0.790551
610.700,0.790739
610.800,0.790921
610.900,0.791090
611.000,0.791311
611.100,0.791533
611.200,0.791752
611.300,0.791986
611.400,0.792231
611.500,0.792449
611.600,0.792695
611.700,0.792945
611.800,0.793175
611.900,0.793429
612.000,0.793687
612.100,0.793947
612.200,0.794192
612.300,0.794454
612.400,0.794728
612.500,0.794981
612.600,0.795296
612.700,0.795625
612.800,0.795936
612.900,0.796266
613.000,0.796604
613.100,0.796931
613.200,0.797275
613.300,0.797627
613.400,0.797955
613.500,0.798312
613.600,0.798675
613.700,0.799020
613.800,0.799386
613.900,0.799756
614.000,0.800139
614.100,0.800500
614.200,0.800937
614.300,0.801375
614.400,0.801799
614.500,0.802248
614.600,0.802699
614.700,0.803133
614.800,0.803592
614.900,0.804065
615.000,0.804509
615.100,0.804984
615.200,0.805459
615.300,0.805920
615.400,0.806408
615.500,0.806897
615.600,0.807400
615.700,0.807886
615.800,0.808448
615.900,0.809016
616.000,0.809567
616.100,0.810143
616.200,0.810722
616.300,0.811286
616.400,0.811877
616.500,0.812476
616.600,0.813044
616.700,0.813649
616.800,0.814257
616.900,0.814846
617.000,0.815465
617.100,0.816076
617.200,0.816706
617.300,0.817333
617.400,0.818032
617.500,0.818725
617.600,0.819409
617.700,0.820112
617.800,0.820818
617.900,0.821518
618.000,0.822232
618.100,0.822960
618.200,0.823659
618.300,0.824390
618.400,0.825124
618.500,0.825863
618.600,0.826582
618.700,0.827332
618.800,0.828078
618.900,0.828835
619.000,0.829640
619.100,0.830453
619.200,0.831244
619.300,0.832063
619.400,0.832878
619.500,0.833682
619.600,0.834505
619.700,0.835333
619.800,0.836162
619.900,0.836974
620.000,0.837813
620.100,0.838647
620.200,0.839469
620.300,0.840314
620.400,0.841157
620.500,0.842007
620.600,0.842903
620.700,0.843793
620.800,0.844664
620.900,0.845562
621.000,0.846452
621.100,0.847350
621.200,0.848222
621.300,0.849125
621.400,0.850027
621.500,0.850902
621.600,0.851811
621.700,0.852708
621.800,0.853594
621.900,0.854494
622.000,0.855399
622.100,0.856328
622.200,0.857225
622.300,0.858152
622.400,0.859065
622.500,0.859972
622.600,0.860888
622.700,0.861806
622.800,0.862702
622.900,0.863616
623.000,0.864536
623.100,0.865451
623.200,0.866350
623.300,0.867259
623.400,0.868170
623.500,0.869063
623.600,0.869974
623.700,0.870892
623.800,0.871773
623.900,0.872674
624.000,0.873571
624.100,0.874466
624.200,0.875341
624.300,0.876222
624.400,0.877119
624.500,0.877985
624.600,0.878872
624.700,0.879750
624.800,0.880610
624.900,0.881484
625.000,0.882355
625.100,0.883213
625.200,0.884078
625.300,0.884936
625.400,0.885767
625.500,0.886587
625.600,0.887411
625.700,0.888242
625.800,0.889047
625.900,0.889863
626.000,0.890675
626.100,0.891485
626.200,0.892278
626.300,0.893081
626.400,0.893881
626.500,0.894663
626.600,0.895459
626.700,0.896245
626.800,0.897016
626.900,0.897775
627.000,0.898502
627.100,0.899229
627.200,0.899938
627.300,0.900649
627.400,0.901365
627.500,0.902062
627.600,0.902767
627.700,0.903468
627.800,0.904156
627.900,0.904850
628.000,0.905539
628.100,0.906228
628.200,0.906891
628.300,0.907568
628.400,0.908248
628.500,0.908868
628.600,0.909472
628.700,0.910076
628.800,0.910668
628.900,0.911259
629.000,0.911851
629.100,0.912435
629.200,0.913013
629.300,0.913587
629.400,0.914166
629.500,0.914723
629.600,0.915294
629.700,0.915864
629.800,0.916417
629.900,0.916967
630.000,0.917521
630.100,0.918016
630.200,0.918484
630.300,0.918954
630.400,0.919428
630.500,0.919888
630.600,0.920342
630.700,0.920803
630.800,0.921257
630.900,0.921703
631.000,0.922147
631.100,0.922598
631.200,0.923026
631.300,0.923465
631.400,0.923905
631.500,0.924336
631.600,0.924759
631.700,0.925117
631.800,0.925468
631.900,0.925805
632.000,0.926149
632.100,0.926489
632.200,0.926829
632.300,0.927153
632.400,0.927488
632.500,0.927817
632.600,0.928138
632.700,0.928458
632.800,0.928779
632.900,0.929102
633.000,0.929412
633.100,0.929722
633.200,0.930035
633.300,0.930263
633.400,0.930494
633.500,0.930716
633.600,0.930940
633.700,0.931164
633.800,0.931388
633.900,0.931603
634.000,0.931810
634.100,0.932028
634.200,0.932242
634.300,0.932449
634.400,0.932657
634.500,0.932867
634.600,0.933064
634.700,0.933262
634.800,0.933459
634.900,0.933585
635.000,0.933703
635.100,0.933827
635.200,0.933946
635.300,0.934059
635.400,0.934173
635.500,0.934286
635.600,0.934400
635.700,0.934508
635.800,0.934614
635.900,0.934723
636.000,0.934832
636.100,0.934934
636.200,0.935040
636.300,0.935139
636.400,0.935226
636.500,0.935252
636.600,0.935281
636.700,0.935307
636.800,0.935325
636.900,0.935348
637.000,0.935368
637.100,0.935385
637.200,0.935406
637.300,0.935424
637.400,0.935441
637.500,0.935453
637.600,0.935467
637.700,0.935480
637.800,0.935489
637.900,0.935503
638.000,0.935498
638.100,0.935438
638.200,0.935374
638.300,0.935312
638.400,0.935254
638.500,0.935188
638.600,0.935123
638.700,0.935062
638.800,0.934995
638.900,0.934927
639.000,0.934864
639.100,0.934796
639.200,0.934725
639.300,0.934657
639.400,0.934589
639.500,0.934517
639.600,0.934432
639.700,0.934293
639.800,0.934158
639.900,0.934018
640.000,0.933878
640.100,0.933741
640.200,0.933603
640.300,0.933464
640.400,0.933326
640.500,0.933188
640.600,0.933046
640.700,0.932904
640.800,0.932764
640.900,0.932624
641.000,0.932478
641.100,0.932341
641.200,0.932175
641.300,0.931972
641.400,0.931769
641.500,0.931566
641.600,0.931362
641.700,0.931159
641.800,0.930955
641.900,0.930749
642.000,0.930550
642.100,0.930343
642.200,0.930139
642.300,0.929939
642.400,0.929732
642.500,0.929528
642.600,0.929325
642.700,0.929121
642.800,0.928896
642.900,0.928644
643.000,0.928391
643.100,0.928137
643.200,0.927886
643.300,0.927638
643.400,0.927386
643.500,0.927133
643.600,0.926883
643.700,0.926633
643.800,0.926382
643.900,0.926130
644.000,0.925883
644.100,0.925634
644.200,0.925382
644.300,0.925134
644.400,0.924872
644.500,0.924590
644.600,0.924309
644.700,0.924032
644.800,0.923753
644.900,0.923475
645.000,0.923199
645.100,0.922917
645.200,0.922642
645.300,0.922366
645.400,0.922090
645.500,0.921817
645.600,0.921544
645.700,0.921267
645.800,0.920991
645.900,0.920717
646.000,0.920432
646.100,0.920140
646.200,0.919847
646.300,0.919556
646.400,0.919261
646.500,0.918971
646.600,0.918682
646.700,0.918389
646.800,0.918098
646.900,0.917813
647.000,0.917526
647.100,0.917234
647.200,0.916948
647.300,0.916665
647.400,0.916381
647.500,0.916091
647.600,0.915803
647.700,0.915513
647.800,0.915223
647.900,0.914935
648.000,0.914647
648.100,0.914360
648.200,0.914070
648.300,0.913784
648.400,0.913499
648.500,0.913211
648.600,0.912926
648.700,0.912643
648.800,0.912361
648.900,0.912078
649.000,0.911797
649.100,0.911517
649.200,0.911241
649.300,0.910974
649.400,0.910707
649.500,0.910440
649.600,0.910175
649.700,0.909910
649.800,0.909643
649.900,0.909380
650.000,0.909116
650.100,0.908852
650.200,0.908591
650.300,0.908330
650.400,0.908062
650.500,0.907802
650.600,0.907543
650.700,0.907283
650.800,0.907051
650.900,0.906829
651.000,0.906605
651.100,0.906384
651.200,0.906163
651.300,0.905939
651.400,0.905720
651.500,0.905498
651.600,0.905280
651.700,0.905056
651.800,0.904839
651.900,0.904618
652.000,0.904397
652.100,0.904178
652.200,0.903962
652.300,0.903738
652.400,0.903575
652.500,0.903423
652.600,0.903269
652.700,0.903115
652.800,0.902963
652.900,0.902807
653.000,0.902654
653.100,0.902498
653.200,0.902345
653.300,0.902191
653.400,0.902035
653.500,0.901884
653.600,0.901727
653.700,0.901574
653.800,0.901416
653.900,0.901262
654.000,0.901186
654.100,0.901121
654.200,0.901056
654.300,0.900992
654.400,0.900928
654.500,0.900861
654.600,0.900797
654.700,0.900732
654.800,0.900665
654.900,0.900599
655.000,0.900532
655.100,0.900465
655.200,0.900396
655.300,0.900328
655.400,0.900259
655.500,0.900190
655.600,0.900224
655.700,0.900272
655.800,0.900317
655.900,0.900364
656.000,0.900403
656.100,0.900450
656.200,0.900491
656.300,0.900535
656.400,0.900576
656.500,0.900617
656.600,0.900661
656.700,0.900701
656.800,0.900743
656.900,0.900782
657.000,0.900824
657.100,0.900859
657.200,0.901027
657.300,0.901196
657.400,0.901360
657.500,0.901528
657.600,0.901696
657.700,0.901865
657.800,0.902029
657.900,0.902195
658.000,0.902364
658.100,0.902535
658.200,0.902703
658.300,0.902865
658.400,0.903033
658.500,0.903202
658.600,0.903370
658.700,0.903544
658.800,0.903834
658.900,0.904127
659.000,0.904415
659.100,0.904708
659.200,0.905001
659.300,0.905294
659.400,0.905585
659.500,0.905880
659.600,0.906176
659.700,0.906472
659.800,0.906769
659.900,0.907070
660.000,0.907368
660.100,0.907668
660.200,0.907964
660.300,0.908274
660.400,0.908680
660.500,0.909084
660.600,0.909488
660.700,0.909896
660.800,0.910306
660.900,0.910711
661.000,0.911125
661.100,0.911538
661.200,0.911955
661.300,0.912365
661.400,0.912780
661.500,0.913200
661.600,0.913618
661.700,0.914037
661.800,0.914456
661.900,0.914895
662.000,0.915383
662.100,0.915868
662.200,0.916358
662.300,0.916847
662.400,0.917340
662.500,0.917831
662.600,0.918329
662.700,0.918825
662.800,0.919328
662.900,0.919825
663.000,0.920322
663.100,0.920826
663.200,0.921330
663.300,0.921832
663.400,0.922341
663.500,0.922853
663.600,0.923381
663.700,0.923916
663.800,0.924453
663.900,0.924988
664.000,0.925523
664.100,0.926059
664.200,0.926601
664.300,0.927138
664.400,0.927678
664.500,0.928219
664.600,0.928764
664.700,0.929307
664.800,0.929851
664.900,0.930400
665.000,0.930948
665.100,0.931495
665.200,0.932026
665.300,0.932566
665.400,0.933106
665.500,0.933647
665.600,0.934185
665.700,0.934723
665.800,0.935266
665.900,0.935809
666.000,0.936350
666.100,0.936894
666.200,0.937435
666.300,0.937980
666.400,0.938523
666.500,0.939070
666.600,0.939616
666.700,0.940144
666.800,0.940652
666.900,0.941156
667.000,0.941667
667.100,0.942171
667.200,0.942679
667.300,0.943186
667.400,0.943695
667.500,0.944198
667.600,0.944709
667.700,0.945215
667.800,0.945726
667.900,0.946234
668.000,0.946740
668.100,0.947252
668.200,0.947757
668.300,0.948240
668.400,0.948703
668.500,0.949160
668.600,0.949618
668.700,0.950073
668.800,0.950530
668.900,0.950987
669.000,0.951448
669.100,0.951903
669.200,0.952359
669.300,0.952815
669.400,0.953271
669.500,0.953729
669.600,0.954185
669.700,0.954644
669.800,0.955098
669.900,0.955523
670.000,0.955921
670.100,0.956318
670.200,0.956721
670.300,0.957115
670.400,0.957517
670.500,0.957912
670.600,0.958308
670.700,0.958707
670.800,0.959101
670.900,0.959501
671.000,0.959895
671.100,0.960287
671.200,0.960686
671.300,0.961078
671.400,0.961471
671.500,0.961834
671.600,0.962171
671.700,0.962515
671.800,0.962852
671.900,0.963193
672.000,0.963530
672.100,0.963865
672.200,0.964206
672.300,0.964541
672.400,0.964880
672.500,0.965216
672.600,0.965549
672.700,0.965888
672.800,0.966222
672.900,0.966559
673.000,0.966893
673.100,0.967195
673.200,0.967477
673.300,0.967764
673.400,0.968045
673.500,0.968331
673.600,0.968617
673.700,0.968897
673.800,0.969182
673.900,0.969461
674.000,0.969745
674.100,0.970030
674.200,0.970308
674.300,0.970592
674.400,0.970870
674.500,0.971152
674.600,0.971435
674.700,0.971681
674.800,0.971918
674.900,0.972155
675.000,0.972395
675.100,0.972631
675.200,0.972866
675.300,0.973101
675.400,0.973341
675.500,0.973574
675.600,0.973809
675.700,0.974043
675.800,0.974281
675.900,0.974515
676.000,0.974747
676.100,0.974981
676.200,0.975219
676.300,0.975420
676.400,0.975617
676.500,0.975813
676.600,0.976009
676.700,0.976205
676.800,0.976400
676.900,0.976596
677.000,0.976791
677.100,0.976985
677.200,0.977180
677.300,0.977374
677.400,0.977569
677.500,0.977763
677.600,0.977957
677.700,0.978156
677.800,0.978350
677.900,0.978512
678.000,0.978675
678.100,0.978836
678.200,0.978999
678.300,0.979161
678.400,0.979322
678.500,0.979484
678.600,0.979646
678.700,0.979806
678.800,0.979968
678.900,0.980128
679.000,0.980289
679.100,0.980450
679.200,0.980612
679.300,0.980772
679.400,0.980933
679.500,0.981068
679.600,0.981203
679.700,0.981338
679.800,0.981472
679.900,0.981606
680.000,0.981740
680.100,0.981874
680.200,0.982008
680.300,0.982143
680.400,0.982277
680.500,0.982410
680.600,0.982543
680.700,0.982676
680.800,0.982810
680.900,0.982943
681.000,0.983076
681.100,0.983188
681.200,0.983296
681.300,0.983408
681.400,0.983520
681.500,0.983632
681.600,0.983744
681.700,0.983850
681.800,0.983962
681.900,0.984073
682.000,0.984185
682.100,0.984292
682.200,0.984403
682.300,0.984514
682.400,0.984625
682.500,0.984736
682.600,0.984842
682.700,0.984932
682.800,0.985027
682.900,0.985118
683.000,0.985208
683.100,0.985303
683.200,0.985393
683.300,0.985488
683.400,0.985577
683.500,0.985667
683.600,0.985761
683.700,0.985852
683.800,0.985946
683.900,0.986035
684.000,0.986124
684.100,0.986219
684.200,0.986303
684.300,0.986382
684.400,0.986455
684.500,0.986534
684.600,0.986608
684.700,0.986686
684.800,0.986759
684.900,0.986837
685.000,0.986911
685.100,0.986983
685.200,0.987061
685.300,0.987134
685.400,0.987214
685.500,0.987290
685.600,0.987368
685.700,0.987441
685.800,0.987514
685.900,0.987576
686.000,0.987637
686.100,0.987699
686.200,0.987762
686.300,0.987825
686.400,0.987887
686.500,0.987948
686.600,0.988011
686.700,0.988072
686.800,0.988134
686.900,0.988195
687.000,0.988256
687.100,0.988320
687.200,0.988381
687.300,0.988442
687.400,0.988498
687.500,0.988550
687.600,0.988601
687.700,0.988651
687.800,0.988702
687.900,0.988753
688.000,0.988805
688.100,0.988855
688.200,0.988905
688.300,0.988957
688.400,0.989007
688.500,0.989057
688.600,0.989107
688.700,0.989158
688.800,0.989210
688.900,0.989260
689.000,0.989304
689.100,0.989349
689.200,0.989390
689.300,0.989429
689.400,0.989468
689.500,0.989508
689.600,0.989553
689.700,0.989594
689.800,0.989632
689.900,0.989671
690.000,0.989717
690.100,0.989756
690.200,0.989795
690.300,0.989834
690.400,0.989879
690.500,0.989919
690.600,0.989953
690.700,0.989986
690.800,0.990020
690.900,0.990054
691.000,0.990088
691.100,0.990121
691.200,0.990154
691.300,0.990183
691.400,0.990218
691.500,0.990251
691.600,0.990284
691.700,0.990318
691.800,0.990351
691.900,0.990379
692.000,0.990412
692.100,0.990446
692.200,0.990475
692.300,0.990502
692.400,0.990530
692.500,0.990552
692.600,0.990580
692.700,0.990602
692.800,0.990630
692.900,0.990657
693.000,0.990679
693.100,0.990708
693.200,0.990730
693.300,0.990757
693.400,0.990785
693.500,0.990807
693.600,0.990834
693.700,0.990855
693.800,0.990876
693.900,0.990901
694.000,0.990922
694.100,0.990938
694.200,0.990960
694.300,0.990976
694.400,0.990998
694.500,0.991013
694.600,0.991034
694.700,0.991057
694.800,0.991074
694.900,0.991095
695.000,0.991110
695.100,0.991133
695.200,0.991154
695.300,0.991169
695.400,0.991184
695.500,0.991200
695.600,0.991218
695.700,0.991228
695.800,0.991243
695.900,0.991258
696.000,0.991269
696.100,0.991284
696.200,0.991299
696.300,0.991314
696.400,0.991324
696.500,0.991340
696.600,0.991356
696.700,0.991364
696.800,0.991379
696.900,0.991396
697.000,0.991405
697.100,0.991414
697.200,0.991423
697.300,0.991435
697.400,0.991444
697.500,0.991453
697.600,0.991462
697.700,0.991470
697.800,0.991480
697.900,0.991489
698.000,0.991498
698.100,0.991500
698.200,0.991512
698.300,0.991520
698.400,0.991529
698.500,0.991537
698.600,0.991547
698.700,0.991550
698.800,0.991552
698.900,0.991555
699.000,0.991565
699.100,0.991568
699.200,0.991571
699.300,0.991579
699.400,0.991581
699.500,0.991585
699.600,0.991587
699.700,0.991595
699.800,0.991596
699.900,0.991602
700.000,0.991603
700.100,0.991611
700.200,0.991607
700.300,0.991609
700.400,0.991612
700.500,0.991614
700.600,0.991616
700.700,0.991613
700.800,0.991616
700.900,0.991617
701.000,0.991619
701.100,0.991614
701.200,0.991615
701.300,0.991620
701.400,0.991621
701.500,0.991622
701.600,0.991619
701.700,0.991622
701.800,0.991617
701.900,0.991620
702.000,0.991614
702.100,0.991611
702.200,0.991608
702.300,0.991608
702.400,0.991603
702.500,0.991599
702.600,0.991596
702.700,0.991596
702.800,0.991592
702.900,0.991586
703.000,0.991589
703.100,0.991585
703.200,0.991579
703.300,0.991573
703.400,0.991569
703.500,0.991565
703.600,0.991561
703.700,0.991555
703.800,0.991549
703.900,0.991547
704.000,0.991540
704.100,0.991528
704.200,0.991523
704.300,0.991517
704.400,0.991512
704.500,0.991508
704.600,0.991501
704.700,0.991495
704.800,0.991492
704.900,0.991478
705.000,0.991472
705.100,0.991460
705.200,0.991456
705.300,0.991442
705.400,0.991437
705.500,0.991424
705.600,0.991417
705.700,0.991414
705.800,0.991399
705.900,0.991392
706.000,0.991380
706.100,0.991375
706.200,0.991360
706.300,0.991355
706.400,0.991341
706.500,0.991333
706.600,0.991323
706.700,0.991309
706.800,0.991294
706.900,0.991282
707.000,0.991277
707.100,0.991262
707.200,0.991249
707.300,0.991234
707.400,0.991219
707.500,0.991216
707.600,0.991200
707.700,0.991185
707.800,0.991172
707.900,0.991159
708.000,0.991153
708.100,0.991137
708.200,0.991115
708.300,0.991101
708.400,0.991088
708.500,0.991073
708.600,0.991059
708.700,0.991043
708.800,0.991029
708.900,0.991016
709.000,0.991000
709.100,0.990976
709.200,0.990963
709.300,0.990948
709.400,0.990932
709.500,0.990918
709.600,0.990901
709.700,0.990887
709.800,0.990866
709.900,0.990849
710.000,0.990833
710.100,0.990811
710.200,0.990796
710.300,0.990779
710.400,0.990765
710.500,0.990741
710.600,0.990723
710.700,0.990711
710.800,0.990686
710.900,0.990669
711.000,0.990654
711.100,0.990631
711.200,0.990613
711.300,0.990598
711.400,0.990573
711.500,0.990556
711.600,0.990535
711.700,0.990510
711.800,0.990491
711.900,0.990468
712.000,0.990453
712.100,0.990427
712.200,0.990411
712.300,0.990384
712.400,0.990366
712.500,0.990345
712.600,0.990318
712.700,0.990302
712.800,0.990275
712.900,0.990259
713.000,0.990235
713.100,0.990207
713.200,0.990181
713.300,0.990164
713.400,0.990140
713.500,0.990113
713.600,0.990095
713.700,0.990068
713.800,0.990044
713.900,0.990018
714.000,0.989998
714.100,0.989970
714.200,0.989945
714.300,0.989920
714.400,0.989899
714.500,0.989873
714.600,0.989845
714.700,0.989817
714.800,0.989794
714.900,0.989766
715.000,0.989737
715.100,0.989718
715.200,0.989693
715.300,0.989664
715.400,0.989637
715.500,0.989608
715.600,0.989579
715.700,0.989555
715.800,0.989525
715.900,0.989504
716.000,0.989476
716.100,0.989450
716.200,0.989419
716.300,0.989393
716.400,0.989362
716.500,0.989324
716.600,0.989300
716.700,0.989270
716.800,0.989238
716.900,0.989210
717.000,0.989179
717.100,0.989152
717.200,0.989123
717.300,0.989092
717.400,0.989063
717.500,0.989035
717.600,0.989003
717.700,0.988974
717.800,0.988935
717.900,0.988902
718.000,0.988878
718.100,0.988845
718.200,0.988813
718.300,0.988784
718.400,0.988743
718.500,0.988713
718.600,0.988683
718.700,0.988651
718.800,0.988617
718.900,0.988583
719.000,0.988549
719.100,0.988516
719.200,0.988485
719.300,0.988452
719.400,0.988413
719.500,0.988382
719.600,0.988348
719.700,0.988305
719.800,0.988274
719.900,0.988243
720.000,0.988200
720.100,0.988168
720.200,0.988133
720.300,0.988102
720.400,0.988061
720.500,0.988026
720.600,0.987991
720.700,0.987949
720.800,0.987917
720.900,0.987882
721.000,0.987840
721.100,0.987804
721.200,0.987768
721.300,0.987730
721.400,0.987694
721.500,0.987648
721.600,0.987615
721.700,0.987582
721.800,0.987539
721.900,0.987502
722.000,0.987464
722.100,0.987421
722.200,0.987388
722.300,0.987341
722.400,0.987307
722.500,0.987269
722.600,0.987221
722.700,0.987191
722.800,0.987144
722.900,0.987105
723.000,0.987060
723.100,0.987027
723.200,0.986978
723.300,0.986943
723.400,0.986893
723.500,0.986853
723.600,0.986813
723.700,0.986773
723.800,0.986724
723.900,0.986687
724.000,0.986638
724.100,0.986593
724.200,0.986552
724.300,0.986502
724.400,0.986461
724.500,0.986410
724.600,0.986374
724.700,0.986323
724.800,0.986281
724.900,0.986229
725.000,0.986183
725.100,0.986141
725.200,0.986089
725.300,0.986046
725.400,0.985994
725.500,0.985956
725.600,0.985902
725.700,0.985850
725.800,0.985807
725.900,0.985754
726.000,0.985716
726.100,0.985661
726.200,0.985607
726.300,0.985564
726.400,0.985509
726.500,0.985459
726.600,0.985416
726.700,0.985361
726.800,0.985320
726.900,0.985271
727.000,0.985214
727.100,0.985169
727.200,0.985113
727.300,0.985067
727.400,0.985017
727.500,0.984960
727.600,0.984914
727.700,0.984858
727.800,0.984800
727.900,0.984760
728.000,0.984702
728.100,0.984654
728.200,0.984596
728.300,0.984538
728.400,0.984496
728.500,0.984438
728.600,0.984379
728.700,0.984329
728.800,0.984271
728.900,0.984228
729.000,0.984169
729.100,0.984109
729.200,0.984059
729.300,0.984005
729.400,0.983946
729.500,0.983894
729.600,0.983833
729.700,0.983783
729.800,0.983727
729.900,0.983666
730.000,0.983615
730.100,0.983551
730.200,0.983490
730.300,0.983443
730.400,0.983381
730.500,0.983329
730.600,0.983265
730.700,0.983203
730.800,0.983156
730.900,0.983093
731.000,0.983027
731.100,0.982973
731.200,0.982909
731.300,0.982850
731.400,0.982797
731.500,0.982732
731.600,0.982666
731.700,0.982611
731.800,0.982551
731.900,0.982496
732.000,0.982430
732.100,0.982362
732.200,0.982314
732.300,0.982250
732.400,0.982184
732.500,0.982128
732.600,0.982058
732.700,0.981997
732.800,0.981939
732.900,0.981871
733.000,0.981802
733.100,0.981743
733.200,0.981680
733.300,0.981610
733.400,0.981552
733.500,0.981482
733.600,0.981410
733.700,0.981358
733.800,0.981287
733.900,0.981216
734.000,0.981154
734.100,0.981083
734.200,0.981019
734.300,0.980957
734.400,0.980885
734.500,0.980810
734.600,0.980750
734.700,0.980683
734.800,0.980608
734.900,0.980545
735.000,0.980471
735.100,0.980395
735.200,0.980341
735.300,0.980265
735.400,0.980189
735.500,0.980125
735.600,0.980057
735.700,0.979979
735.800,0.979915
735.900,0.979836
736.000,0.979759
736.100,0.979701
736.200,0.979622
736.300,0.979544
736.400,0.979478
736.500,0.979399
736.600,0.979327
736.700,0.979260
736.800,0.979179
736.900,0.979099
737.000,0.979031
737.100,0.978958
737.200,0.978878
737.300,0.978808
737.400,0.978726
737.500,0.978644
737.600,0.978569
737.700,0.978499
737.800,0.978416
737.900,0.978337
738.000,0.978266
738.100,0.978191
738.200,0.978105
738.300,0.978034
738.400,0.977949
738.500,0.977863
738.600,0.977788
738.700,0.977713
738.800,0.977626
738.900,0.977540
739.000,0.977464
739.100,0.977386
739.200,0.977299
739.300,0.977222
739.400,0.977134
739.500,0.977046
739.600,0.976977
739.700,0.976887
739.800,0.976798
739.900,0.976706
740.000,0.976628
740.100,0.976546
740.200,0.976456
740.300,0.976378
740.400,0.976285
740.500,0.976190
740.600,0.976109
740.700,0.976030
740.800,0.975934
740.900,0.975841
741.000,0.975760
741.100,0.975675
741.200,0.975580
741.300,0.975482
741.400,0.975401
741.500,0.975303
741.600,0.975217
741.700,0.975134
741.800,0.975035
741.900,0.974938
742.000,0.974840
742.100,0.974765
742.200,0.974667
742.300,0.974565
742.400,0.974478
742.500,0.974379
742.600,0.974289
742.700,0.974188
742.800,0.974100
742.900,0.973998
743.000,0.973895
743.100,0.973815
743.200,0.973714
743.300,0.973609
743.400,0.973514
743.500,0.973421
743.600,0.973328
743.700,0.973223
743.800,0.973114
743.900,0.973024
744.000,0.972916
744.100,0.972820
744.200,0.972726
744.300,0.972617
744.400,0.972509
744.500,0.972399
744.600,0.972316
744.700,0.972205
744.800,0.972097
744.900,0.971983
745.000,0.971887
745.100,0.971789
745.200,0.971676
745.300,0.971563
745.400,0.971463
745.500,0.971350
745.600,0.971250
745.700,0.971131
745.800,0.971034
745.900,0.970916
746.000,0.970798
746.100,0.970698
746.200,0.970594
746.300,0.970474
746.400,0.970358
746.500,0.970246
746.600,0.970159
746.700,0.970035
746.800,0.969917
746.900,0.969795
747.000,0.969688
747.100,0.969580
747.200,0.969469
747.300,0.969345
747.400,0.969236
747.500,0.969111
747.600,0.969004
747.700,0.968876
747.800,0.968777
747.900,0.968651
748.000,0.968523
748.100,0.968411
748.200,0.968302
748.300,0.968172
748.400,0.968040
748.500,0.967922
748.600,0.967823
748.700,0.967694
748.800,0.967562
748.900,0.967430
749.000,0.967313
749.100,0.967195
749.200,0.967072
749.300,0.966937
749.400,0.966803
749.500,0.966682
749.600,0.966564
749.700,0.966429
749.800,0.966300
749.900,0.966178
750.000,0.966040
750.100,0.965917
750.200,0.965776
750.300,0.965655
750.400,0.965515
750.500,0.965381
750.600,0.965258
750.700,0.965116
750.800,0.964991
750.900,0.964846
751.000,0.964702
751.100,0.964557
751.200,0.964455
751.300,0.964309
751.400,0.964163
751.500,0.964015
751.600,0.963864
751.700,0.963752
751.800,0.963613
751.900,0.963460
752.000,0.963309
752.100,0.963176
752.200,0.963042
752.300,0.962886
752.400,0.962732
752.500,0.962591
752.600,0.962452
752.700,0.962315
752.800,0.962158
752.900,0.962003
753.000,0.961846
753.100,0.961705
753.200,0.961576
753.300,0.961416
753.400,0.961254
753.500,0.961111
753.600,0.960951
753.700,0.960805
753.800,0.960654
753.900,0.960488
754.000,0.960342
754.100,0.960175
754.200,0.960028
754.300,0.959863
754.400,0.959690
754.500,0.959557
754.600,0.959386
754.700,0.959210
754.800,0.959063
754.900,0.958889
755.000,0.958741
755.100,0.958562
755.200,0.958401
755.300,0.958245
755.400,0.958071
755.500,0.957912
755.600,0.957732
755.700,0.957555
755.800,0.957407
755.900,0.957229
756.000,0.957049
756.100,0.956885
756.200,0.956703
756.300,0.956540
756.400,0.956357
756.500,0.956185
756.600,0.956016
756.700,0.955830
756.800,0.955663
756.900,0.955475
757.000,0.955286
757.100,0.955116
757.200,0.954934
757.300,0.954762
757.400,0.954573
757.500,0.954376
757.600,0.954181
757.700,0.954010
757.800,0.953821
757.900,0.953646
758.000,0.953451
758.100,0.953251
758.200,0.953068
758.300,0.952865
758.400,0.952689
758.500,0.952501
758.600,0.952292
758.700,0.952090
758.800,0.951905
758.900,0.951716
759.000,0.951510
759.100,0.951300
759.200,0.951105
759.300,0.950889
759.400,0.950726
759.500,0.950515
759.600,0.950295
759.700,0.950082
759.800,0.949877
759.900,0.949662
760.000,0.949494
760.100,0.949272
760.200,0.949053
760.300,0.948825
760.400,0.948599
760.500,0.948416
760.600,0.948216
760.700,0.947983
760.800,0.947763
760.900,0.947532
761.000,0.947330
761.100,0.947101
761.200,0.946905
761.300,0.946673
761.400,0.946431
761.500,0.946228
761.600,0.945993
761.700,0.945747
761.800,0.945549
761.900,0.945305
762.000,0.945064
762.100,0.944851
762.200,0.944603
762.300,0.944364
762.400,0.944109
762.500,0.943902
762.600,0.943688
762.700,0.943439
762.800,0.943184
762.900,0.942926
763.000,0.942673
763.100,0.942479
763.200,0.942233
763.300,0.941975
763.400,0.941716
763.500,0.941450
763.600,0.941225
763.700,0.940962
763.800,0.940734
763.900,0.940469
764.000,0.940201
764.100,0.939938
764.200,0.939694
764.300,0.939428
764.400,0.939154
764.500,0.938917
764.600,0.938642
764.700,0.938401
764.800,0.938128
764.900,0.937842
765.000,0.937566
765.100,0.937276
765.200,0.937074
765.300,0.936787
765.400,0.936505
765.500,0.936214
765.600,0.935918
765.700,0.935623
765.800,0.935392
765.900,0.935117
766.000,0.934826
766.100,0.934520
766.200,0.934225
766.300,0.933956
766.400,0.933651
766.500,0.933368
766.600,0.933053
766.700,0.932779
766.800,0.932503
766.900,0.932196
767.000,0.931874
767.100,0.931564
767.200,0.931270
767.300,0.930950
767.400,0.930671
767.500,0.930377
767.600,0.930058
767.700,0.929723
767.800,0.929418
767.900,0.929140
768.000,0.928807
768.100,0.928471
768.200,0.928141
768.300,0.927839
768.400,0.927537
768.500,0.927220
768.600,0.926883
768.700,0.926537
768.800,0.926180
768.900,0.925836
769.000,0.925539
769.100,0.925185
769.200,0.924886
769.300,0.924535
769.400,0.924165
769.500,0.923860
769.600,0.923502
769.700,0.923143
769.800,0.922793
769.900,0.922420
770.000,0.922106
770.100,0.921763
770.200,0.921393
770.300,0.921020
770.400,0.920645
770.500,0.920281
770.600,0.919956
770.700,0.919582
770.800,0.919191
770.900,0.918795
771.000,0.918441
771.100,0.918106
771.200,0.917726
771.300,0.917331
771.400,0.916934
771.500,0.916526
771.600,0.916132
771.700,0.915786
771.800,0.915400
771.900,0.914982
772.000,0.914605
772.100,0.914202
772.200,0.913836
772.300,0.913417
772.400,0.913004
772.500,0.912602
772.600,0.912167
772.700,0.911799
772.800,0.911378
772.900,0.910935
773.000,0.910543
773.100,0.910103
773.200,0.909683
773.300,0.909293
773.400,0.908846
773.500,0.908407
773.600,0.907954
773.700,0.907498
773.800,0.907128
773.900,0.906667
774.000,0.906205
774.100,0.905784
774.200,0.905314
774.300,0.904855
774.400,0.904448
774.500,0.903982
774.600,0.903500
774.700,0.903040
774.800,0.902552
774.900,0.902122
775.000,0.901652
775.100,0.901179
775.200,0.900679
775.300,0.900218
775.400,0.899747
775.500,0.899312
775.600,0.898803
775.700,0.898298
775.800,0.897804
775.900,0.897272
776.000,0.896836
776.100,0.896319
776.200,0.895802
776.300,0.895280
776.400,0.894753
776.500,0.894345
776.600,0.893814
776.700,0.893277
776.800,0.892740
776.900,0.892199
777.000,0.891666
777.100,0.891185
777.200,0.890608
777.300,0.890091
777.400,0.889518
777.500,0.888944
777.600,0.888487
777.700,0.887918
777.800,0.887330
777.900,0.886739
778.000,0.886229
778.100,0.885629
778.200,0.885130
778.300,0.884539
778.400,0.883968
778.500,0.883357
778.600,0.882751
778.700,0.882264
778.800,0.881637
778.900,0.881023
779.000,0.880405
779.100,0.879794
779.200,0.879168
779.300,0.878629
779.400,0.877981
779.500,0.877413
779.600,0.876771
779.700,0.876124
779.800,0.875583
779.900,0.874928
780.000,0.874265
780.100,0.873587
780.200,0.872962
780.300,0.872286
780.400,0.871697
780.500,0.871030
780.600,0.870356
780.700,0.869665
780.800,0.868951
780.900,0.868403
781.000,0.867684
781.100,0.866971
781.200,0.866258
781.300,0.865619
781.400,0.864891
781.500,0.864274
781.600,0.863557
781.700,0.862835
781.800,0.862109
781.900,0.861341
782.000,0.860620
782.100,0.859994
782.200,0.859232
782.300,0.858464
782.400,0.857724
782.500,0.856941
782.600,0.856277
782.700,0.855489
782.800,0.854745
782.900,0.853929
783.000,0.853142
783.100,0.852343
783.200,0.851669
783.300,0.850848
783.400,0.850022
783.500,0.849241
783.600,0.848403
783.700,0.847742
783.800,0.846911
783.900,0.846091
784.000,0.845207
784.100,0.844359
784.200,0.843521
784.300,0.842777
784.400,0.841911
784.500,0.841021
784.600,0.840159
784.700,0.839275
784.800,0.838486
784.900,0.837591
785.000,0.836725
785.100,0.835817
785.200,0.834862
785.300,0.833977
785.400,0.833196
785.500,0.832222
785.600,0.831282
785.700,0.830372
785.800,0.829398
785.900,0.828417
786.000,0.827602
786.100,0.826645
786.200,0.825644
786.300,0.824656
786.400,0.823706
786.500,0.822863
786.600,0.821834
786.700,0.820819
786.800,0.819873
786.900,0.818844
787.000,0.817808
787.100,0.816883
787.200,0.815872
787.300,0.814814
787.400,0.813725
787.500,0.812667
787.600,0.811757
787.700,0.810645
787.800,0.809580
787.900,0.808492
788.000,0.807356
788.100,0.806236
788.200,0.805286
788.300,0.804192
788.400,0.803055
788.500,0.801903
788.600,0.800759
788.700,0.799565
788.800,0.798574
788.900,0.797423
789.000,0.796245
789.100,0.795043
789.200,0.793805
789.300,0.792753
789.400,0.791602
789.500,0.790365
789.600,0.789092
789.700,0.787916
789.800,0.786652
789.900,0.785581
790.000,0.784279
790.100,0.783032
790.200,0.781732
790.300,0.780430
790.400,0.779110
790.500,0.778037
790.600,0.776707
790.700,0.775360
790.800,0.774047
790.900,0.772687
791.000,0.771499
791.100,0.770151
791.200,0.768769
791.300,0.767401
791.400,0.765984
791.500,0.764555
791.600,0.763401
791.700,0.761953
791.800,0.760536
791.900,0.759080
792.000,0.757641
792.100,0.756150
792.200,0.754897
792.300,0.753432
792.400,0.751909
792.500,0.750384
792.600,0.748837
792.700,0.747621
792.800,0.746063
792.900,0.744484
793.000,0.742986
793.100,0.741383
793.200,0.739778
793.300,0.738412
793.400,0.736870
793.500,0.735185
793.600,0.733569
793.700,0.731895
793.800,0.730268
793.900,0.728842
794.000,0.727180
794.100,0.725469
794.200,0.723782
794.300,0.722082
794.400,0.720566
794.500,0.718893
794.600,0.717107
794.700,0.715318
794.800,0.713596
794.900,0.711821
795.000,0.710330
795.100,0.708490
795.200,0.706676
795.300,0.704849
795.400,0.702968
795.500,0.701060
795.600,0.699556
795.700,0.697634
795.800,0.695685
795.900,0.693821
796.000,0.691910
796.100,0.690240
796.200,0.688292
796.300,0.686340
796.400,0.684363
796.500,0.682313
796.600,0.680306
796.700,0.678678
796.800,0.676585
796.900,0.674537
797.000,0.672426
797.100,0.670402
797.200,0.668247
797.300,0.666442
797.400,0.664424
797.500,0.662286
797.600,0.660020
797.700,0.657850
797.800,0.655720
797.900,0.653889
798.000,0.651609
798.100,0.649378
798.200,0.647187
798.300,0.644873
798.400,0.642908
798.500,0.640724
798.600,0.638361
798.700,0.636034
798.800,0.633621
798.900,0.631264
799.000,0.629341
799.100,0.626949
799.200,0.624486
799.300,0.622117
799.400,0.619730
799.500,0.617214
799.600,0.615211
799.700,0.612645
799.800,0.610193
799.900,0.607608
800.000,0.605120
800.100,0.602557
800.200,0.600413
800.300,0.597817
800.400,0.595261
800.500,0.592570
800.600,0.589981
800.700,0.587371
800.800,0.585078
800.900,0.582376
801.000,0.579720
801.100,0.576978
801.200,0.574221
801.300,0.571915
801.400,0.569189
801.500,0.566375
801.600,0.563547
801.700,0.560766
801.800,0.557894
801.900,0.555499
802.000,0.552599
802.100,0.549682
802.200,0.546803
802.300,0.543846
802.400,0.540872
802.500,0.538386
802.600,0.535434
802.700,0.532407
802.800,0.529358
802.900,0.526349
803.000,0.523334
803.100,0.520687
803.200,0.517638
803.300,0.514557
803.400,0.511326
803.500,0.508222
803.600,0.505024
803.700,0.502342
803.800,0.499185
803.900,0.495934
804.000,0.492764
804.100,0.489476
804.200,0.486734
804.300,0.483489
804.400,0.480015
804.500,0.476735
804.600,0.473357
804.700,0.469961
804.800,0.467235
804.900,0.463806
805.000,0.460440
805.100,0.456976
805.200,0.453414
805.300,0.449996
805.400,0.447185
805.500,0.443680
805.600,0.440050
805.700,0.436567
805.800,0.432984
805.900,0.429576
806.000,0.426497
806.100,0.422952
806.200,0.419306
806.300,0.415560
806.400,0.412077
806.500,0.408383
806.600,0.405343
806.700,0.401537
806.800,0.397999
806.900,0.394247
807.000,0.390569
807.100,0.386702
807.200,0.383763
807.300,0.379956
807.400,0.376227
807.500,0.372422
807.600,0.368617
807.700,0.364759
807.800,0.361762
807.900,0.357795
808.000,0.353995
808.100,0.350209
808.200,0.346388
808.300,0.342376
808.400,0.339331
808.500,0.335389
808.600,0.331561
808.700,0.327648
808.800,0.323680
808.900,0.320604
809.000,0.316532
809.100,0.312757
809.200,0.308760
809.300,0.304853
809.400,0.300875
809.500,0.297650
809.600,0.293849
809.700,0.289828
809.800,0.285767
809.900,0.281861
810.000,0.277927
810.100,0.274592
810.200,0.270686
810.300,0.266652
810.400,0.262835
810.500,0.258897
810.600,0.254774
810.700,0.251658
810.800,0.247629
810.900,0.243664
811.000,0.239769
811.100,0.235751
811.200,0.231955
811.300,0.228553
811.400,0.224647
811.500,0.220774
811.600,0.216882
811.700,0.213030
811.800,0.209181
811.900,0.206004
812.000,0.202240
812.100,0.198215
812.200,0.194502
812.300,0.190683
812.400,0.186903
812.500,0.183818
812.600,0.180040
812.700,0.176303
812.800,0.172558
812.900,0.168860
813.000,0.165039
813.100,0.162122
813.200,0.158450
813.300,0.154739
813.400,0.151222
813.500,0.147614
813.600,0.143972
813.700,0.141048
813.800,0.137620
813.900,0.134108
814.000,0.130566
814.100,0.127202
814.200,0.123774
814.300,0.121004
814.400,0.117554
814.500,0.114316
814.600,0.110925
814.700,0.107751
814.800,0.104535
814.900,0.101900
815.000,0.098742
815.100,0.095698
815.200,0.092515
815.300,0.089545
815.400,0.086537
815.500,0.084084
815.600,0.081156
815.700,0.078244
815.800,0.075393
815.900,0.072592
816.000,0.069810
816.100,0.067648
816.200,0.064966
816.300,0.062253
816.400,0.059731
816.500,0.057253
816.600,0.054683
816.700,0.052686
816.800,0.050345
816.900,0.048052
817.000,0.045679
817.100,0.043437
817.200,0.041298
817.300,0.039528
817.400,0.037488
817.500,0.035400
817.600,0.033464
817.700,0.031520
817.800,0.029693
817.900,0.028162
818.000,0.026437
818.100,0.024714
818.200,0.023066
818.300,0.021512
818.400,0.020016
818.500,0.018815
818.600,0.017350
818.700,0.016021
818.800,0.014752
818.900,0.013542
819.000,0.012365
819.100,0.011448
819.200,0.010376
819.300,0.009399
819.400,0.008463
819.500,0.007620
819.600,0.006828
819.700,0.006206
819.800,0.005512
819.900,0.004880
820.000,0.004327
820.100,0.003836
820.200,0.003399
820.300,0.003086
820.400,0.002773
820.500,0.002517
820.600,0.002342
820.700,0.002214
820.800,0.002152
820.900,0.002149
821.000,0.002203
821.100,0.002318
821.200,0.002496
821.300,0.002741
821.400,0.003043
821.500,0.003332
821.600,0.003744
821.700,0.004252
821.800,0.004787
821.900,0.005383
822.000,0.006038
822.100,0.006632
822.200,0.007396
822.300,0.008219
822.400,0.009100
822.500,0.010063
822.600,0.011094
822.700,0.011947
822.800,0.013057
822.900,0.014245
823.000,0.015461
823.100,0.016765
823.200,0.018125
823.300,0.019242
823.400,0.020668
823.500,0.022148
823.600,0.023717
823.700,0.025302
823.800,0.026938
823.900,0.028627
824.000,0.030073
824.100,0.031850
824.200,0.033677
824.300,0.035552
824.400,0.037521
824.500,0.039491
824.600,0.041121
824.700,0.043174
824.800,0.045322
824.900,0.047461
825.000,0.049647
825.100,0.051875
825.200,0.053690
825.300,0.055993
825.400,0.058337
825.500,0.060777
825.600,0.063200
825.700,0.065662
825.800,0.067682
825.900,0.070271
826.000,0.072825
826.100,0.075425
826.200,0.078059
826.300,0.080791
826.400,0.082904
826.500,0.085631
826.600,0.088298
826.700,0.091152
826.800,0.093970
826.900,0.096818
827.000,0.099143
827.100,0.102092
827.200,0.105017
827.300,0.107968
827.400,0.110945
827.500,0.114017
827.600,0.116362
827.700,0.119406
827.800,0.122450
827.900,0.125537
828.000,0.128437
828.100,0.131564
828.200,0.134106
828.300,0.137242
828.400,0.140421
828.500,0.143485
828.600,0.146698
828.700,0.149926
828.800,0.153142
828.900,0.155774
829.000,0.158905
829.100,0.162102
829.200,0.165366
829.300,0.168672
829.400,0.171991
829.500,0.174647
829.600,0.177873
829.700,0.181186
829.800,0.184542
829.900,0.187906
830.000,0.191243
830.100,0.193770
830.200,0.197118
830.300,0.200508
830.400,0.203905
830.500,0.207268
830.600,0.210561
830.700,0.213264
830.800,0.216676
830.900,0.219979
831.000,0.223356
831.100,0.226777
831.200,0.230044
831.300,0.232716
831.400,0.236140
831.500,0.239407
831.600,0.242831
831.700,0.246210
831.800,0.249519
831.900,0.252188
832.000,0.255563
832.100,0.258866
832.200,0.262235
832.300,0.265647
832.400,0.268805
832.500,0.272210
832.600,0.274953
832.700,0.278189
832.800,0.281583
832.900,0.284922
833.000,0.288102
833.100,0.291479
833.200,0.294147
833.300,0.297401
833.400,0.300710
833.500,0.303974
833.600,0.307320
833.700,0.310495
833.800,0.313180
833.900,0.316252
834.000,0.319569
834.100,0.322878
834.200,0.326014
834.300,0.329218
834.400,0.331809
834.500,0.334973
834.600,0.338239
834.700,0.341244
834.800,0.344490
834.900,0.347672
835.000,0.350789
835.100,0.353294
835.200,0.356337
835.300,0.359534
835.400,0.362664
835.500,0.365647
835.600,0.368754
835.700,0.371186
835.800,0.374330
835.900,0.377215
836.000,0.380336
836.100,0.383282
836.200,0.386378
836.300,0.388675
836.400,0.391692
836.500,0.394652
836.600,0.397562
836.700,0.400600
836.800,0.403524
836.900,0.405878
837.000,0.408780
837.100,0.411711
837.200,0.414507
837.300,0.417372
837.400,0.420264
837.500,0.423103
837.600,0.425319
837.700,0.428135
837.800,0.431037
837.900,0.433691
838.000,0.436566
838.100,0.439272
838.200,0.441486
838.300,0.444228
838.400,0.446993
838.500,0.449634
838.600,0.452371
838.700,0.455061
838.800,0.457154
838.900,0.459821
839.000,0.462567
839.100,0.465074
839.200,0.467793
839.300,0.470347
839.400,0.472438
839.500,0.475028
839.600,0.477635
839.700,0.480128
839.800,0.482708
839.900,0.485175
840.000,0.487789
840.100,0.489729
840.200,0.492160
840.300,0.494676
840.400,0.497082
840.500,0.499544
840.600,0.502019
840.700,0.503891
840.800,0.506342
840.900,0.508688
841.000,0.511088
841.100,0.513499
841.200,0.515807
841.300,0.517626
841.400,0.519994
841.500,0.522273
841.600,0.524599
841.700,0.526929
841.800,0.529169
841.900,0.531473
842.000,0.533223
842.100,0.535488
842.200,0.537757
842.300,0.539937
842.400,0.542103
842.500,0.544336
842.600,0.546088
842.700,0.548220
842.800,0.550418
842.900,0.552525
843.000,0.554749
843.100,0.556832
843.200,0.558527
843.300,0.560664
843.400,0.562715
843.500,0.564753
843.600,0.566855
843.700,0.568929
843.800,0.570874
843.900,0.572504
844.000,0.574501
844.100,0.576531
844.200,0.578548
844.300,0.580511
844.400,0.582505
844.500,0.583967
844.600,0.586011
844.700,0.587860
844.800,0.589812
844.900,0.591698
845.000,0.593637
845.100,0.595106
845.200,0.596958
845.300,0.598802
845.400,0.600757
845.500,0.602522
845.600,0.604388
845.700,0.606133
845.800,0.607662
845.900,0.609445
846.000,0.611213
846.100,0.612976
846.200,0.614787
846.300,0.616529
846.400,0.617943
846.500,0.619611
846.600,0.621375
846.700,0.623023
846.800,0.624780
846.900,0.626513
847.000,0.628132
847.100,0.629491
847.200,0.631093
847.300,0.632788
847.400,0.634486
847.500,0.636107
847.600,0.637726
847.700,0.638984
847.800,0.640586
847.900,0.642171
848.000,0.643812
848.100,0.645432
848.200,0.646943
848.300,0.648212
848.400,0.649707
848.500,0.651303
848.600,0.652878
848.700,0.654346
848.800,0.655903
848.900,0.657354
849.000,0.658573
849.100,0.660116
849.200,0.661621
849.300,0.663091
849.400,0.664501
849.500,0.665997
849.600,0.667133
849.700,0.668562
849.800,0.670045
849.900,0.671415
850.000,0.672870
850.100,0.674275
850.200,0.675662
850.300,0.676753
850.400,0.678085
850.500,0.679501
850.600,0.680918
850.700,0.682266
850.800,0.683617
850.900,0.684621
851.000,0.685998
851.100,0.687277
851.200,0.688599
851.300,0.689953
851.400,0.691209
851.500,0.692268
851.600,0.693511
851.700,0.694798
851.800,0.696114
851.900,0.697383
852.000,0.698684
852.100,0.699892
852.200,0.700872
852.300,0.702104
852.400,0.703341
852.500,0.704522
852.600,0.705781
852.700,0.706949
852.800,0.707933
852.900,0.709089
853.000,0.710285
853.100,0.711491
853.200,0.712626
853.300,0.713803
853.400,0.714960
853.500,0.715872
853.600,0.716983
853.700,0.718211
853.800,0.719309
853.900,0.720448
854.000,0.721567
854.100,0.722403
854.200,0.723524
854.300,0.724625
854.400,0.725734
854.500,0.726790
854.600,0.727918
854.700,0.728947
854.800,0.729797
854.900,0.730862
855.000,0.731890
855.100,0.732957
855.200,0.734005
855.300,0.735061
855.400,0.735838
855.500,0.736883
855.600,0.737909
855.700,0.738942
855.800,0.739926
855.900,0.740866
856.000,0.741913
856.100,0.742661
856.200,0.743668
856.300,0.744655
856.400,0.745674
856.500,0.746621
856.600,0.747563
856.700,0.748358
856.800,0.749291
856.900,0.750261
857.000,0.751183
857.100,0.752135
857.200,0.753047
857.300,0.753997
857.400,0.754721
857.500,0.755619
857.600,0.756554
857.700,0.757442
857.800,0.758395
857.900,0.759274
858.000,0.760010
858.100,0.760880
858.200,0.761813
858.300,0.762673
858.400,0.763529
858.500,0.764421
858.600,0.765260
858.700,0.765950
858.800,0.766788
858.900,0.767663
859.000,0.768518
859.100,0.769383
859.200,0.770203
859.300,0.770831
859.400,0.771652
859.500,0.772485
859.600,0.773329
859.700,0.774147
859.800,0.774950
859.900,0.775766
860.000,0.776411
860.100,0.777194
860.200,0.777973
860.300,0.778757
860.400,0.779552
860.500,0.780358
860.600,0.780945
860.700,0.781743
860.800,0.782469
860.900,0.783282
861.000,0.784030
861.100,0.784774
861.200,0.785552
861.300,0.786135
861.400,0.786900
861.500,0.787629
861.600,0.788392
861.700,0.789113
861.800,0.789868
861.900,0.790577
862.000,0.791122
862.100,0.791867
862.200,0.792571
862.300,0.793308
862.400,0.793976
862.500,0.794728
862.600,0.795257
862.700,0.795980
862.800,0.796663
862.900,0.797316
863.000,0.798044
863.100,0.798738
863.200,0.799443
863.300,0.799954
863.400,0.800626
863.500,0.801285
863.600,0.801977
863.700,0.802651
863.800,0.803274
863.900,0.803806
864.000,0.804449
864.100,0.805125
864.200,0.805737
864.300,0.806406
864.400,0.807037
864.500,0.807719
864.600,0.808188
864.700,0.808810
864.800,0.809463
864.900,0.810079
865.000,0.810701
865.100,0.811311
865.200,0.811952
865.300,0.812434
865.400,0.813011
865.500,0.813643
865.600,0.814239
865.700,0.814841
865.800,0.815430
865.900,0.815913
866.000,0.816474
866.100,0.817108
866.200,0.817686
866.300,0.818252
866.400,0.818858
866.500,0.819429
866.600,0.819873
866.700,0.820438
866.800,0.821033
866.900,0.821571
867.000,0.822160
867.100,0.822715
867.200,0.823114
867.300,0.823696
867.400,0.824221
867.500,0.824798
867.600,0.825357
867.700,0.825906
867.800,0.826443
867.900,0.826895
868.000,0.827406
868.100,0.827935
868.200,0.828473
868.300,0.828997
868.400,0.829550
868.500,0.830049
868.600,0.830475
868.700,0.830990
868.800,0.831513
868.900,0.832023
869.000,0.832511
869.100,0.833047
869.200,0.833431
869.300,0.833943
869.400,0.834458
869.500,0.834965
869.600,0.835471
869.700,0.835993
869.800,0.836462
869.900,0.836834
870.000,0.837330
870.100,0.837814
870.200,0.838325
870.300,0.838784
870.400,0.839290
870.500,0.839746
870.600,0.840135
870.700,0.840587
870.800,0.841055
870.900,0.841532
871.000,0.841996
871.100,0.842469
871.200,0.842830
871.300,0.843317
871.400,0.843755
871.500,0.844238
871.600,0.844672
871.700,0.845122
871.800,0.845580
871.900,0.845920
872.000,0.846374
872.100,0.846817
872.200,0.847286
872.300,0.847706
872.400,0.848171
872.500,0.848588
872.600,0.848917
872.700,0.849359
872.800,0.849788
872.900,0.850235
873.000,0.850661
873.100,0.851112
873.200,0.851415
873.300,0.851863
873.400,0.852264
873.500,0.852680
873.600,0.853105
873.700,0.853518
873.800,0.853939
873.900,0.854250
874.000,0.854668
874.100,0.855074
874.200,0.855449
874.300,0.855878
874.400,0.856262
874.500,0.856680
874.600,0.856982
874.700,0.857388
874.800,0.857782
874.900,0.858185
875.000,0.858576
875.100,0.858949
875.200,0.859363
875.300,0.859639
875.400,0.860034
875.500,0.860417
875.600,0.860808
875.700,0.861188
875.800,0.861576
875.900,0.861861
876.000,0.862209
876.100,0.862592
876.200,0.862973
876.300,0.863353
876.400,0.863722
876.500,0.864099
876.600,0.864377
876.700,0.864751
876.800,0.865099
876.900,0.865460
877.000,0.865830
877.100,0.866189
877.200,0.866556
877.300,0.866813
877.400,0.867177
877.500,0.867515
877.600,0.867891
877.700,0.868227
877.800,0.868583
877.900,0.868940
878.000,0.869187
878.100,0.869556
878.200,0.869884
878.300,0.870250
878.400,0.870576
878.500,0.870913
878.600,0.871169
878.700,0.871515
878.800,0.871836
878.900,0.872193
879.000,0.872535
879.100,0.872852
879.200,0.873205
879.300,0.873452
879.400,0.873779
879.500,0.874115
879.600,0.874449
879.700,0.874772
879.800,0.875103
879.900,0.875433
880.000,0.875698
880.100,0.875992
880.200,0.876332
880.300,0.876657
880.400,0.876958
880.500,0.877294
880.600,0.877615
880.700,0.877830
880.800,0.878151
880.900,0.878469
881.000,0.878776
881.100,0.879092
881.200,0.879406
881.300,0.879635
881.400,0.879937
881.500,0.880248
881.600,0.880535
881.700,0.880856
881.800,0.881163
881.900,0.881447
882.000,0.881680
882.100,0.881986
882.200,0.882267
882.300,0.882569
882.400,0.882881
882.500,0.883159
882.600,0.883447
882.700,0.883674
882.800,0.883982
882.900,0.884255
883.000,0.884549
883.100,0.884854
883.200,0.885115
883.300,0.885405
883.400,0.885637
883.500,0.885905
883.600,0.886192
883.700,0.886481
883.800,0.886745
883.900,0.887030
884.000,0.887313
884.100,0.887518
884.200,0.887790
884.300,0.888070
884.400,0.888340
884.500,0.888618
884.600,0.888895
884.700,0.889142
884.800,0.889357
884.900,0.889631
885.000,0.889884
885.100,0.890147
885.200,0.890429
885.300,0.890679
885.400,0.890884
885.500,0.891152
885.600,0.891411
885.700,0.891668
885.800,0.891934
885.900,0.892199
886.000,0.892433
886.100,0.892644
886.200,0.892906
886.300,0.893147
886.400,0.893398
886.500,0.893668
886.600,0.893906
886.700,0.894163
886.800,0.894350
886.900,0.894596
887.000,0.894851
887.100,0.895104
887.200,0.895329
887.300,0.895591
887.400,0.895842
887.500,0.896013
887.600,0.896254
887.700,0.896502
887.800,0.896741
887.900,0.896987
888.000,0.897225
888.100,0.897451
888.200,0.897636
888.300,0.897890
888.400,0.898124
888.500,0.898347
888.600,0.898588
888.700,0.898827
888.800,0.899040
888.900,0.899225
889.000,0.899463
889.100,0.899681
889.200,0.899909
889.300,0.900144
889.400,0.900360
889.500,0.900603
889.600,0.900772
889.700,0.900986
889.800,0.901217
889.900,0.901440
890.000,0.901651
890.100,0.901889
890.200,0.902062
890.300,0.902264
890.400,0.902490
890.500,0.902716
890.600,0.902916
890.700,0.903149
890.800,0.903373
890.900,0.903516
891.000,0.903738
891.100,0.903960
891.200,0.904173
891.300,0.904375
891.400,0.904594
891.500,0.904813
891.600,0.904962
891.700,0.905179
891.800,0.905395
891.900,0.905586
892.000,0.905801
892.100,0.906015
892.200,0.906204
892.300,0.906365
892.400,0.906577
892.500,0.906764
892.600,0.906975
892.700,0.907185
892.800,0.907379
892.900,0.907587
893.000,0.907740
893.100,0.907924
893.200,0.908130
893.300,0.908336
893.400,0.908518
893.500,0.908722
893.600,0.908926
893.700,0.909073
893.800,0.909259
893.900,0.909461
894.000,0.909656
894.100,0.909848
894.200,0.910042
894.300,0.910241
894.400,0.910375
894.500,0.910567
894.600,0.910764
894.700,0.910945
894.800,0.911134
894.900,0.911330
895.000,0.911509
895.100,0.911657
895.200,0.911851
895.300,0.912028
895.400,0.912214
895.500,0.912406
895.600,0.912581
895.700,0.912766
895.800,0.912910
895.900,0.913083
896.000,0.913266
896.100,0.913454
896.200,0.913620
896.300,0.913807
896.400,0.913994
896.500,0.914128
896.600,0.914298
896.700,0.914477
896.800,0.914661
896.900,0.914829
897.000,0.915006
897.100,0.915185
897.200,0.915301
897.300,0.915483
897.400,0.915664
897.500,0.915822
897.600,0.916002
897.700,0.916176
897.800,0.916339
897.900,0.916474
898.000,0.916645
898.100,0.916807
898.200,0.916978
898.300,0.917147
898.400,0.917307
898.500,0.917476
898.600,0.917608
898.700,0.917761
898.800,0.917934
898.900,0.918102
899.000,0.918259
899.100,0.918431
899.200,0.918597
899.300,0.918725
899.400,0.918875
899.500,0.919045
899.600,0.919214
899.700,0.919363
899.800,0.919531
899.900,0.919693
900.000,0.919804
900.100,0.919966
900.200,0.920132
900.300,0.920283
900.400,0.920443
900.500,0.920608
900.600,0.920752
900.700,0.920876
900.800,0.921034
900.900,0.921182
901.000,0.921339
901.100,0.921501
901.200,0.921645
901.300,0.921794
901.400,0.921915
901.500,0.922055
901.600,0.922215
901.700,0.922369
901.800,0.922513
901.900,0.922666
902.000,0.922824
902.100,0.922937
902.200,0.923080
902.300,0.923236
902.400,0.923387
902.500,0.923529
902.600,0.923672
902.700,0.923826
902.800,0.923923
902.900,0.924077
903.000,0.924225
903.100,0.924364
903.200,0.924512
903.300,0.924664
903.400,0.924796
903.500,0.924907
903.600,0.925046
903.700,0.925183
903.800,0.925328
903.900,0.925474
904.000,0.925604
904.100,0.925753
904.200,0.925859
904.300,0.926004
904.400,0.926127
904.500,0.926274
904.600,0.926420
904.700,0.926548
904.800,0.926691
904.900,0.926795
905.000,0.926927
905.100,0.927060
905.200,0.927202
905.300,0.927327
905.400,0.927470
905.500,0.927608
905.600,0.927702
905.700,0.927837
905.800,0.927968
905.900,0.928096
906.000,0.928232
906.100,0.928370
906.200,0.928492
906.300,0.928597
906.400,0.928732
906.500,0.928868
906.600,0.928983
906.700,0.929121
906.800,0.929255
906.900,0.929379
907.000,0.929475
907.100,0.929612
907.200,0.929730
907.300,0.929866
907.400,0.929989
907.500,0.930112
907.600,0.930242
907.700,0.930343
907.800,0.930460
907.900,0.930591
908.000,0.930720
908.100,0.930830
908.200,0.930963
908.300,0.931088
908.400,0.931187
908.500,0.931302
908.600,0.931428
908.700,0.931552
908.800,0.931670
908.900,0.931796
909.000,0.931925
909.100,0.932000
909.200,0.932123
909.300,0.932252
909.400,0.932363
909.500,0.932492
909.600,0.932607
909.700,0.932722
909.800,0.932845
909.900,0.932936
910.000,0.933045
910.100,0.933164
910.200,0.933290
910.300,0.933399
910.400,0.933519
910.500,0.933637
910.600,0.933731
910.700,0.933838
910.800,0.933953
910.900,0.934074
911.000,0.934181
911.100,0.934304
911.200,0.934417
911.300,0.934497
911.400,0.934612
911.500,0.934730
911.600,0.934834
911.700,0.934951
911.800,0.935069
911.900,0.935174
912.000,0.935260
912.100,0.935374
912.200,0.935478
912.300,0.935595
912.400,0.935710
912.500,0.935828
912.600,0.935926
912.700,0.936007
912.800,0.936125
912.900,0.936227
913.000,0.936339
913.100,0.936449
913.200,0.936550
913.300,0.936662
913.400,0.936744
913.500,0.936844
913.600,0.936952
913.700,0.937063
913.800,0.937167
913.900,0.937272
914.000,0.937380
914.100,0.937454
914.200,0.937559
914.300,0.937672
914.400,0.937770
914.500,0.937877
914.600,0.937984
914.700,0.938092
914.800,0.938165
914.900,0.938270
915.000,0.938373
915.100,0.938473
915.200,0.938580
915.300,0.938680
915.400,0.938779
915.500,0.938885
915.600,0.938967
915.700,0.939056
915.800,0.939160
915.900,0.939269
916.000,0.939358
916.100,0.939462
916.200,0.939568
916.300,0.939629
916.400,0.939737
916.500,0.939840
916.600,0.939942
916.700,0.940033
916.800,0.940136
916.900,0.940238
917.000,0.940302
917.100,0.940402
917.200,0.940504
917.300,0.940593
917.400,0.940695
917.500,0.940794
917.600,0.940883
917.700,0.940957
917.800,0.941053
917.900,0.941146
918.000,0.941244
918.100,0.941339
918.200,0.941431
918.300,0.941530
918.400,0.941596
918.500,0.941688
918.600,0.941782
918.700,0.941880
918.800,0.941980
918.900,0.942062
919.000,0.942160
919.100,0.942260
919.200,0.942317
919.300,0.942412
919.400,0.942507
919.500,0.942593
919.600,0.942689
919.700,0.942782
919.800,0.942868
919.900,0.942934
920.000,0.943029
920.100,0.943117
920.200,0.943205
920.300,0.943300
920.400,0.943383
920.500,0.943477
920.600,0.943544
920.700,0.943637
920.800,0.943720
920.900,0.943809
921.000,0.943903
921.100,0.943986
921.200,0.944074
921.300,0.944142
921.400,0.944227
921.500,0.944313
921.600,0.944405
921.700,0.944485
921.800,0.944576
921.900,0.944666
922.000,0.944722
922.100,0.944812
922.200,0.944898
922.300,0.944979
922.400,0.945070
922.500,0.945156
922.600,0.945235
922.700,0.945324
922.800,0.945387
922.900,0.945472
923.000,0.945554
923.100,0.945643
923.200,0.945725
923.300,0.945804
923.400,0.945891
923.500,0.945955
923.600,0.946029
923.700,0.946118
923.800,0.946201
923.900,0.946278
924.000,0.946365
924.100,0.946449
924.200,0.946502
924.300,0.946584
924.400,0.946670
924.500,0.946746
924.600,0.946830
924.700,0.946911
924.800,0.946996
924.900,0.947048
925.000,0.947131
925.100,0.947216
925.200,0.947287
925.300,0.947374
925.400,0.947452
925.500,0.947527
925.600,0.947606
925.700,0.947670
925.800,0.947741
925.900,0.947822
926.000,0.947901
926.100,0.947977
926.200,0.948060
926.300,0.948137
926.400,0.948188
926.500,0.948269
926.600,0.948350
926.700,0.948419
926.800,0.948499
926.900,0.948579
927.000,0.948660
927.100,0.948707
927.200,0.948786
927.300,0.948865
927.400,0.948937
927.500,0.949013
927.600,0.949092
927.700,0.949159
927.800,0.949241
927.900,0.949285
928.000,0.949364
928.100,0.949429
928.200,0.949501
928.300,0.949566
928.400,0.949644
928.500,0.949709
928.600,0.949758
928.700,0.949824
928.800,0.949901
928.900,0.949965
929.000,0.950032
929.100,0.950100
929.200,0.950176
929.300,0.950219
929.400,0.950287
929.500,0.950350
929.600,0.950428
929.700,0.950491
929.800,0.950558
929.900,0.950630
930.000,0.950699
930.100,0.950742
930.200,0.950807
930.300,0.950878
930.400,0.950944
930.500,0.951007
930.600,0.951075
930.700,0.951145
930.800,0.951190
930.900,0.951252
931.000,0.951317
931.100,0.951389
931.200,0.951451
931.300,0.951516
931.400,0.951585
931.500,0.951629
931.600,0.951693
931.700,0.951757
931.800,0.951826
931.900,0.951890
932.000,0.951950
932.100,0.952013
932.200,0.952064
932.300,0.952125
932.400,0.952188
932.500,0.952247
932.600,0.952319
932.700,0.952378
932.800,0.952443
932.900,0.952502
933.000,0.952554
933.100,0.952613
933.200,0.952671
933.300,0.952742
933.400,0.952803
933.500,0.952865
933.600,0.952923
933.700,0.952974
933.800,0.953032
933.900,0.953089
934.000,0.953154
934.100,0.953219
934.200,0.953280
934.300,0.953337
934.400,0.953398
934.500,0.953445
934.600,0.953504
934.700,0.953565
934.800,0.953622
934.900,0.953689
935.000,0.953746
935.100,0.953803
935.200,0.953852
935.300,0.953910
935.400,0.953967
935.500,0.954026
935.600,0.954090
935.700,0.954149
935.800,0.954205
935.900,0.954242
936.000,0.954311
936.100,0.954366
936.200,0.954422
936.300,0.954480
936.400,0.954543
936.500,0.954599
936.600,0.954656
936.700,0.954703
936.800,0.954761
936.900,0.954816
937.000,0.954870
937.100,0.954935
937.200,0.954990
937.300,0.955044
937.400,0.955083
937.500,0.955147
937.600,0.955201
937.700,0.955258
937.800,0.955311
937.900,0.955373
938.000,0.955429
938.100,0.955464
938.200,0.955520
938.300,0.955584
938.400,0.955637
938.500,0.955692
938.600,0.955753
938.700,0.955806
938.800,0.955861
938.900,0.955896
939.000,0.955959
939.100,0.956011
939.200,0.956065
939.300,0.956121
939.400,0.956180
939.500,0.956232
939.600,0.956269
939.700,0.956321
939.800,0.956380
939.900,0.956434
940.000,0.956486
940.100,0.956537
940.200,0.956598
940.300,0.956652
940.400,0.956686
940.500,0.956744
940.600,0.956798
940.700,0.956849
940.800,0.956899
940.900,0.956960
941.000,0.957010
941.100,0.957044
941.200,0.957094
941.300,0.957156
941.400,0.957206
941.500,0.957256
941.600,0.957309
941.700,0.957365
941.800,0.957399
941.900,0.957451
942.000,0.957508
942.100,0.957557
942.200,0.957609
942.300,0.957658
942.400,0.957714
942.500,0.957766
942.600,0.957801
942.700,0.957850
942.800,0.957905
942.900,0.957957
943.000,0.958005
943.100,0.958054
943.200,0.958112
943.300,0.958144
943.400,0.958192
943.500,0.958240
943.600,0.958298
943.700,0.958346
943.800,0.958393
943.900,0.958452
944.000,0.958501
944.100,0.958532
944.200,0.958579
944.300,0.958637
944.400,0.958684
944.500,0.958731
944.600,0.958781
944.700,0.958835
944.800,0.958866
944.900,0.958915
945.000,0.958963
945.100,0.959016
945.200,0.959065
945.300,0.959112
945.400,0.959158
945.500,0.959211
945.600,0.959244
945.700,0.959291
945.800,0.959343
945.900,0.959392
946.000,0.959438
946.100,0.959484
946.200,0.959536
946.300,0.959571
946.400,0.959617
946.500,0.959662
946.600,0.959714
946.700,0.959761
946.800,0.959807
946.900,0.959852
947.000,0.959904
947.100,0.959934
947.200,0.959981
947.300,0.960033
947.400,0.960077
947.500,0.960122
947.600,0.960169
947.700,0.960220
947.800,0.960250
947.900,0.960294
948.000,0.960341
948.100,0.960391
948.200,0.960436
948.300,0.960480
948.400,0.960526
948.500,0.960577
948.600,0.960605
948.700,0.960649
948.800,0.960695
948.900,0.960745
949.000,0.960789
949.100,0.960832
949.200,0.960876
949.300,0.960913
949.400,0.960956
949.500,0.960999
949.600,0.961042
949.700,0.961085
949.800,0.961127
949.900,0.961180
950.000,0.961222
950.100,0.961250
950.200,0.961292
950.300,0.961335
950.400,0.961380
950.500,0.961428
950.600,0.961471
950.700,0.961513
950.800,0.961541
950.900,0.961583
951.000,0.961627
951.100,0.961675
951.200,0.961717
951.300,0.961759
951.400,0.961801
951.500,0.961842
951.600,0.961878
951.700,0.961920
951.800,0.961961
951.900,0.962002
952.000,0.962043
952.100,0.962087
952.200,0.962134
952.300,0.962161
952.400,0.962203
952.500,0.962243
952.600,0.962284
952.700,0.962327
952.800,0.962374
952.900,0.962414
953.000,0.962455
953.100,0.962482
953.200,0.962522
953.300,0.962565
953.400,0.962611
953.500,0.962651
953.600,0.962689
953.700,0.962729
953.800,0.962756
953.900,0.962804
954.000,0.962844
954.100,0.962883
954.200,0.962924
954.300,0.962963
954.400,0.963002
954.500,0.963048
954.600,0.963074
954.700,0.963113
954.800,0.963155
954.900,0.963194
955.000,0.963233
955.100,0.963278
955.200,0.963317
955.300,0.963343
955.400,0.963382
955.500,0.963423
955.600,0.963462
955.700,0.963507
955.800,0.963545
955.900,0.963584
956.000,0.963621
956.100,0.963648
956.200,0.963692
956.300,0.963731
956.400,0.963769
956.500,0.963807
956.600,0.963847
956.700,0.963886
956.800,0.963916
956.900,0.963954
957.000,0.963992
957.100,0.964030
957.200,0.964068
957.300,0.964107
957.400,0.964151
957.500,0.964189
957.600,0.964211
957.700,0.964249
957.800,0.964286
957.900,0.964323
958.000,0.964366
958.100,0.964404
958.200,0.964443
958.300,0.964480
958.400,0.964504
958.500,0.964547
958.600,0.964584
958.700,0.964621
958.800,0.964658
958.900,0.964693
959.000,0.964729
959.100,0.964759
959.200,0.964796
959.300,0.964832
959.400,0.964868
959.500,0.964905
959.600,0.964941
959.700,0.964983
959.800,0.965019
959.900,0.965045
960.000,0.965079
960.100,0.965115
960.200,0.965151
960.300,0.965193
960.400,0.965228
960.500,0.965264
960.600,0.965288
960.700,0.965323
960.800,0.965361
960.900,0.965402
961.000,0.965438
961.100,0.965471
961.200,0.965506
961.300,0.965542
961.400,0.965570
961.500,0.965606
961.600,0.965640
961.700,0.965678
961.800,0.965713
961.900,0.965748
962.000,0.965787
962.100,0.965822
962.200,0.965844
962.300,0.965879
962.400,0.965914
962.500,0.965948
962.600,0.965988
962.700,0.966023
962.800,0.966057
962.900,0.966078
963.000,0.966112
963.100,0.966147
963.200,0.966187
963.300,0.966221
963.400,0.966255
963.500,0.966291
963.600,0.966325
963.700,0.966351
963.800,0.966385
963.900,0.966419
964.000,0.966453
964.100,0.966487
964.200,0.966520
964.300,0.966559
964.400,0.966581
964.500,0.966613
964.600,0.966647
964.700,0.966680
964.800,0.966714
964.900,0.966752
965.000,0.966785
965.100,0.966819
965.200,0.966839
965.300,0.966872
965.400,0.966905
965.500,0.966943
965.600,0.966976
965.700,0.967009
965.800,0.967042
965.900,0.967074
966.000,0.967100
966.100,0.967133
966.200,0.967165
966.300,0.967198
966.400,0.967231
966.500,0.967263
966.600,0.967300
966.700,0.967320
966.800,0.967353
966.900,0.967385
967.000,0.967418
967.100,0.967450
967.200,0.967485
967.300,0.967518
967.400,0.967550
967.500,0.967570
967.600,0.967602
967.700,0.967635
967.800,0.967672
967.900,0.967702
968.000,0.967734
968.100,0.967766
968.200,0.967797
968.300,0.967823
968.400,0.967855
968.500,0.967886
968.600,0.967916
968.700,0.967947
968.800,0.967979
968.900,0.968015
969.000,0.968035
969.100,0.968067
969.200,0.968097
969.300,0.968128
969.400,0.968159
969.500,0.968195
969.600,0.968226
969.700,0.968255
969.800,0.968276
969.900,0.968307
970.000,0.968337
970.100,0.968373
970.200,0.968404
970.300,0.968433
970.400,0.968464
970.500,0.968494
970.600,0.968514
970.700,0.968544
970.800,0.968573
970.900,0.968603
971.000,0.968633
971.100,0.968663
971.200,0.968699
971.300,0.968718
971.400,0.968747
971.500,0.968777
971.600,0.968807
971.700,0.968837
971.800,0.968867
971.900,0.968896
972.000,0.968924
972.100,0.968944
972.200,0.968973
972.300,0.969001
972.400,0.969031
972.500,0.969059
972.600,0.969089
972.700,0.969118
972.800,0.969153
972.900,0.969170
973.000,0.969199
973.100,0.969229
973.200,0.969258
973.300,0.969287
973.400,0.969315
973.500,0.969344
973.600,0.969373
973.700,0.969392
973.800,0.969419
973.900,0.969447
974.000,0.969476
974.100,0.969505
974.200,0.969534
974.300,0.969561
974.400,0.969584
974.500,0.969613
974.600,0.969642
974.700,0.969669
974.800,0.969696
974.900,0.969725
975.000,0.969753
975.100,0.969781
975.200,0.969800
975.300,0.969827
975.400,0.969854
975.500,0.969882
975.600,0.969910
975.700,0.969937
975.800,0.969966
975.900,0.969994
976.000,0.970012
976.100,0.970045
976.200,0.970071
976.300,0.970099
976.400,0.970127
976.500,0.970155
976.600,0.970182
976.700,0.970198
976.800,0.970226
976.900,0.970254
977.000,0.970281
977.100,0.970308
977.200,0.970335
977.300,0.970363
977.400,0.970391
977.500,0.970407
977.600,0.970434
977.700,0.970467
977.800,0.970494
977.900,0.970520
978.000,0.970548
978.100,0.970575
978.200,0.970601
978.300,0.970616
978.400,0.970644
978.500,0.970671
978.600,0.970698
978.700,0.970724
978.800,0.970751
978.900,0.970778
979.000,0.970805
979.100,0.970821
979.200,0.970848
979.300,0.970878
979.400,0.970904
979.500,0.970930
979.600,0.970957
979.700,0.970984
979.800,0.971001
979.900,0.971026
980.000,0.971051
980.100,0.971078
980.200,0.971104
980.300,0.971130
980.400,0.971156
980.500,0.971182
980.600,0.971199
980.700,0.971224
980.800,0.971249
980.900,0.971276
981.000,0.971306
981.100,0.971331
981.200,0.971358
981.300,0.971384
981.400,0.971400
981.500,0.971423
981.600,0.971449
981.700,0.971476
981.800,0.971500
981.900,0.971526
982.000,0.971552
982.100,0.971578
982.200,0.971592
982.300,0.971618
982.400,0.971644
982.500,0.971668
982.600,0.971698
982.700,0.971722
982.800,0.971748
982.900,0.971772
983.000,0.971788
983.100,0.971814
983.200,0.971838
983.300,0.971862
983.400,0.971888
983.500,0.971913
983.600,0.971937
983.700,0.971952
983.800,0.971977
983.900,0.972002
984.000,0.972026
984.100,0.972052
984.200,0.972081
984.300,0.972105
984.400,0.972130
984.500,0.972146
984.600,0.972170
984.700,0.972193
984.800,0.972218
984.900,0.972243
985.000,0.972267
985.100,0.972292
985.200,0.972317
985.300,0.972330
985.400,0.972355
985.500,0.972379
985.600,0.972403
985.700,0.972427
985.800,0.972455
985.900,0.972479
986.000,0.972503
986.100,0.972518
986.200,0.972541
986.300,0.972565
986.400,0.972589
986.500,0.972614
986.600,0.972637
986.700,0.972660
986.800,0.972684
986.900,0.972699
987.000,0.972722
987.100,0.972747
987.200,0.972771
987.300,0.972792
987.400,0.972817
987.500,0.972845
987.600,0.972859
987.700,0.972883
987.800,0.972905
987.900,0.972928
988.000,0.972952
988.100,0.972976
988.200,0.973000
988.300,0.973021
988.400,0.973036
988.500,0.973060
988.600,0.973083
988.700,0.973105
988.800,0.973129
988.900,0.973151
989.000,0.973175
989.100,0.973201
989.200,0.973215
989.300,0.973239
989.400,0.973262
989.500,0.973283
989.600,0.973307
989.700,0.973330
989.800,0.973351
989.900,0.973374
990.000,0.973389
990.100,0.973411
990.200,0.973434
990.300,0.973458
990.400,0.973478
990.500,0.973502
990.600,0.973524
990.700,0.973551
990.800,0.973565
990.900,0.973586
991.000,0.973609
991.100,0.973632
991.200,0.973654
991.300,0.973677
991.400,0.973698
991.500,0.973720
991.600,0.973735
991.700,0.973757
991.800,0.973774
991.900,0.973797
992.000,0.973819
992.100,0.973841
992.200,0.973862
992.300,0.973873
992.400,0.973894
992.500,0.973917
992.600,0.973938
992.700,0.973960
992.800,0.973978
992.900,0.974001
993.000,0.974021
993.100,0.974035
993.200,0.974057
993.300,0.974075
993.400,0.974096
993.500,0.974117
993.600,0.974140
993.700,0.974162
993.800,0.974178
993.900,0.974192
994.000,0.974214
994.100,0.974235
994.200,0.974256
994.300,0.974274
994.400,0.974295
994.500,0.974316
994.600,0.974338
994.700,0.974351
994.800,0.974369
994.900,0.974389
995.000,0.974411
995.100,0.974433
995.200,0.974453
995.300,0.974470
995.400,0.974492
995.500,0.974505
995.600,0.974527
995.700,0.974546
995.800,0.974564
995.900,0.974586
996.000,0.974606
996.100,0.974627
996.200,0.974648
996.300,0.974661
996.400,0.974678
996.500,0.974698
996.600,0.974720
996.700,0.974740
996.800,0.974760
996.900,0.974778
997.000,0.974797
997.100,0.974811
997.200,0.974832
997.300,0.974851
997.400,0.974869
997.500,0.974890
997.600,0.974909
997.700,0.974930
997.800,0.974950
997.900,0.974960
998.000,0.974980
998.100,0.975000
998.200,0.975021
998.300,0.975040
998.400,0.975058
998.500,0.975079
998.600,0.975097
998.700,0.975110
998.800,0.975131
998.900,0.975146
999.000,0.975167
999.100,0.975187
999.200,0.975207
999.300,0.975228
999.400,0.975236
999.500,0.975256
999.600,0.975276
999.700,0.975295
999.800,0.975315
999.900,0.975332
1000.000,0.975352