Wavelength,Reflectance
400.000,0.815388
400.100,0.815358
400.200,0.815331
400.300,0.815302
400.400,0.815275
400.500,0.815245
400.600,0.815218
400.700,0.815189
400.800,0.815159
400.900,0.815132
401.000,0.815103
401.100,0.815079
401.200,0.815052
401.300,0.815028
401.400,0.815001
401.500,0.814975
401.600,0.814951
401.700,0.814924
401.800,0.814900
401.900,0.814873
402.000,0.814850
402.100,0.814824
402.200,0.814800
402.300,0.814773
402.400,0.814750
402.500,0.814724
402.600,0.814700
402.700,0.814677
402.800,0.814655
402.900,0.814632
403.000,0.814611
403.100,0.814587
403.200,0.814566
403.300,0.814543
403.400,0.814522
403.500,0.814498
403.600,0.814477
403.700,0.814454
403.800,0.814433
403.900,0.814409
404.000,0.814389
404.100,0.814365
404.200,0.814346
404.300,0.814324
404.400,0.814306
404.500,0.814285
404.600,0.814267
404.700,0.814246
404.800,0.814228
404.900,0.814207
405.000,0.814189
405.100,0.814168
405.200,0.814150
405.300,0.814132
405.400,0.814112
405.500,0.814094
405.600,0.814073
405.700,0.814055
405.800,0.814036
405.900,0.814020
406.000,0.814002
406.100,0.813986
406.200,0.813968
406.300,0.813952
406.400,0.813933
406.500,0.813918
406.600,0.813900
406.700,0.813884
406.800,0.813866
406.900,0.813850
407.000,0.813832
407.100,0.813817
407.200,0.813799
407.300,0.813783
407.400,0.813767
407.500,0.813753
407.600,0.813737
407.700,0.813724
407.800,0.813708
407.900,0.813695
408.000,0.813679
408.100,0.813665
408.200,0.813649
408.300,0.813636
408.400,0.813620
408.500,0.813607
408.600,0.813594
408.700,0.813578
408.800,0.813566
408.900,0.813550
409.000,0.813538
409.100,0.813524
409.200,0.813513
409.300,0.813499
409.400,0.813488
409.500,0.813474
409.600,0.813463
409.700,0.813450
409.800,0.813438
409.900,0.813425
410.000,0.813414
410.100,0.813400
410.200,0.813389
410.300,0.813375
410.400,0.813365
410.500,0.813351
410.600,0.813341
410.700,0.813329
410.800,0.813320
410.900,0.813309
411.000,0.813300
411.100,0.813288
411.200,0.813279
411.300,0.813267
411.400,0.813258
411.500,0.813246
411.600,0.813237
411.700,0.813228
411.800,0.813216
411.900,0.813207
412.000,0.813195
412.100,0.813186
412.200,0.813176
412.300,0.813169
412.400,0.813159
412.500,0.813151
412.600,0.813141
412.700,0.813134
412.800,0.813124
412.900,0.813116
413.000,0.813106
413.100,0.813098
413.200,0.813089
413.300,0.813081
413.400,0.813071
413.500,0.813064
413.600,0.813054
413.700,0.813047
413.800,0.813038
413.900,0.813032
414.000,0.813023
414.100,0.813018
414.200,0.813009
414.300,0.813003
414.400,0.812995
414.500,0.812989
414.600,0.812980
414.700,0.812975
414.800,0.812966
414.900,0.812960
415.000,0.812954
415.100,0.812946
415.200,0.812940
415.300,0.812935
415.400,0.812927
415.500,0.812923
415.600,0.812918
415.700,0.812914
415.800,0.812906
415.900,0.812902
416.000,0.812898
416.100,0.812890
416.200,0.812886
416.300,0.812881
416.400,0.812874
416.500,0.812869
416.600,0.812865
416.700,0.812858
416.800,0.812853
416.900,0.812849
417.000,0.812846
417.100,0.812840
417.200,0.812837
417.300,0.812833
417.400,0.812827
417.500,0.812823
417.600,0.812820
417.700,0.812814
417.800,0.812811
417.900,0.812807
418.000,0.812801
418.100,0.812798
418.200,0.812795
418.300,0.812791
418.400,0.812785
418.500,0.812782
418.600,0.812780
418.700,0.812775
418.800,0.812772
418.900,0.812770
419.000,0.812765
419.100,0.812763
419.200,0.812760
419.300,0.812755
419.400,0.812753
419.500,0.812750
419.600,0.812748
419.700,0.812743
419.800,0.812741
419.900,0.812738
420.000,0.812733
420.100,0.812731
420.200,0.812730
420.300,0.812726
420.400,0.812725
420.500,0.812723
420.600,0.812719
420.700,0.812718
420.800,0.812716
420.900,0.812714
421.000,0.812710
421.100,0.812708
421.200,0.812707
421.300,0.812702
421.400,0.812701
421.500,0.812699
421.600,0.812695
421.700,0.812694
421.800,0.812693
421.900,0.812692
422.000,0.812689
422.100,0.812688
422.200,0.812687
422.300,0.812684
422.400,0.812683
422.500,0.812682
422.600,0.812678
422.700,0.812677
422.800,0.812677
422.900,0.812673
423.000,0.812672
423.100,0.812671
423.200,0.812670
423.300,0.812668
423.400,0.812667
423.500,0.812667
423.600,0.812664
423.700,0.812664
423.800,0.812663
423.900,0.812660
424.000,0.812660
424.100,0.812660
424.200,0.812657
424.300,0.812656
424.400,0.812656
424.500,0.812656
424.600,0.812652
424.700,0.812652
424.800,0.812652
424.900,0.812649
425.000,0.812649
425.100,0.812650
425.200,0.812647
425.300,0.812647
425.400,0.812648
425.500,0.812645
425.600,0.812645
425.700,0.812645
425.800,0.812645
425.900,0.812642
426.000,0.812642
426.100,0.812642
426.200,0.812640
426.300,0.812640
426.400,0.812640
426.500,0.812638
426.600,0.812638
426.700,0.812639
426.800,0.812637
426.900,0.812637
427.000,0.812637
427.100,0.812638
427.200,0.812636
427.300,0.812636
427.400,0.812637
427.500,0.812634
427.600,0.812635
427.700,0.812635
427.800,0.812635
427.900,0.812635
428.000,0.812636
428.100,0.812636
428.200,0.812635
428.300,0.812635
428.400,0.812636
428.500,0.812636
428.600,0.812637
428.700,0.812638
428.800,0.812639
428.900,0.812640
429.000,0.812640
429.100,0.812640
429.200,0.812641
429.300,0.812641
429.400,0.812639
429.500,0.812639
429.600,0.812640
429.700,0.812641
429.800,0.812642
429.900,0.812643
430.000,0.812644
430.100,0.812644
430.200,0.812645
430.300,0.812646
430.400,0.812647
430.500,0.812648
430.600,0.812645
430.700,0.812646
430.800,0.812647
430.900,0.812647
431.000,0.812648
431.100,0.812648
431.200,0.812649
431.300,0.812650
431.400,0.812651
431.500,0.812652
431.600,0.812653
431.700,0.812653
431.800,0.812652
431.900,0.812653
432.000,0.812653
432.100,0.812654
432.200,0.812655
432.300,0.812655
432.400,0.812656
432.500,0.812656
432.600,0.812657
432.700,0.812658
432.800,0.812659
432.900,0.812660
433.000,0.812658
433.100,0.812658
433.200,0.812659
433.300,0.812660
433.400,0.812661
433.500,0.812662
433.600,0.812662
433.700,0.812663
433.800,0.812663
433.900,0.812664
434.000,0.812665
434.100,0.812665
434.200,0.812663
434.300,0.812663
434.400,0.812664
434.500,0.812665
434.600,0.812666
434.700,0.812667
434.800,0.812668
434.900,0.812668
435.000,0.812669
435.100,0.812669
435.200,0.812670
435.300,0.812671
435.400,0.812669
435.500,0.812669
435.600,0.812670
435.700,0.812670
435.800,0.812671
435.900,0.812672
436.000,0.812672
436.100,0.812673
436.200,0.812674
436.300,0.812674
436.400,0.812675
436.500,0.812675
436.600,0.812673
436.700,0.812674
436.800,0.812674
436.900,0.812674
437.000,0.812675
437.100,0.812676
437.200,0.812676
437.300,0.812676
437.400,0.812676
437.500,0.812677
437.600,0.812678
437.700,0.812678
437.800,0.812676
437.900,0.812676
438.000,0.812676
438.100,0.812677
438.200,0.812677
438.300,0.812677
438.400,0.812678
438.500,0.812678
438.600,0.812678
438.700,0.812679
438.800,0.812679
438.900,0.812679
439.000,0.812676
439.100,0.812676
439.200,0.812677
439.300,0.812677
439.400,0.812678
439.500,0.812678
439.600,0.812678
439.700,0.812678
439.800,0.812678
439.900,0.812676
440.000,0.812675
440.100,0.812675
440.200,0.812676
440.300,0.812676
440.400,0.812676
440.500,0.812676
440.600,0.812673
440.700,0.812673
440.800,0.812673
440.900,0.812674
441.000,0.812673
441.100,0.812673
441.200,0.812673
441.300,0.812670
441.400,0.812671
441.500,0.812670
441.600,0.812670
441.700,0.812670
441.800,0.812670
441.900,0.812669
442.000,0.812667
442.100,0.812666
442.200,0.812666
442.300,0.812666
442.400,0.812666
442.500,0.812665
442.600,0.812665
442.700,0.812662
442.800,0.812662
442.900,0.812662
443.000,0.812662
443.100,0.812661
443.200,0.812660
443.300,0.812661
443.400,0.812657
443.500,0.812657
443.600,0.812656
443.700,0.812655
443.800,0.812655
443.900,0.812655
444.000,0.812654
444.100,0.812651
444.200,0.812650
444.300,0.812650
444.400,0.812650
444.500,0.812649
444.600,0.812648
444.700,0.812648
444.800,0.812645
444.900,0.812644
445.000,0.812643
445.100,0.812643
445.200,0.812642
445.300,0.812641
445.400,0.812640
445.500,0.812637
445.600,0.812636
445.700,0.812636
445.800,0.812635
445.900,0.812634
446.000,0.812633
446.100,0.812633
446.200,0.812632
446.300,0.812628
446.400,0.812627
446.500,0.812626
446.600,0.812626
446.700,0.812624
446.800,0.812623
446.900,0.812622
447.000,0.812619
447.100,0.812618
447.200,0.812617
447.300,0.812616
447.400,0.812615
447.500,0.812614
447.600,0.812613
447.700,0.812609
447.800,0.812608
447.900,0.812607
448.000,0.812606
448.100,0.812604
448.200,0.812603
448.300,0.812602
448.400,0.812598
448.500,0.812597
448.600,0.812596
448.700,0.812594
448.800,0.812594
448.900,0.812592
449.000,0.812591
449.100,0.812587
449.200,0.812586
449.300,0.812584
449.400,0.812583
449.500,0.812581
449.600,0.812580
449.700,0.812579
449.800,0.812575
449.900,0.812573
450.000,0.812572
450.100,0.812570
450.200,0.812569
450.300,0.812567
450.400,0.812566
450.500,0.812562
450.600,0.812560
450.700,0.812559
450.800,0.812557
450.900,0.812556
451.000,0.812554
451.100,0.812553
451.200,0.812549
451.300,0.812547
451.400,0.812545
451.500,0.812543
451.600,0.812542
451.700,0.812540
451.800,0.812538
451.900,0.812534
452.000,0.812532
452.100,0.812531
452.200,0.812529
452.300,0.812527
452.400,0.812523
452.500,0.812520
452.600,0.812519
452.700,0.812517
452.800,0.812513
452.900,0.812511
453.000,0.812509
453.100,0.812507
453.200,0.812502
453.300,0.812500
453.400,0.812499
453.500,0.812497
453.600,0.812492
453.700,0.812490
453.800,0.812488
453.900,0.812483
454.000,0.812482
454.100,0.812479
454.200,0.812477
454.300,0.812472
454.400,0.812471
454.500,0.812468
454.600,0.812466
454.700,0.812462
454.800,0.812460
454.900,0.812457
455.000,0.812453
455.100,0.812451
455.200,0.812448
455.300,0.812446
455.400,0.812441
455.500,0.812439
455.600,0.812437
455.700,0.812434
455.800,0.812429
455.900,0.812427
456.000,0.812424
456.100,0.812422
456.200,0.812417
456.300,0.812415
456.400,0.812412
456.500,0.812407
456.600,0.812405
456.700,0.812402
456.800,0.812400
456.900,0.812394
457.000,0.812392
457.100,0.812390
457.200,0.812387
457.300,0.812382
457.400,0.812380
457.500,0.812377
457.600,0.812372
457.700,0.812369
457.800,0.812367
457.900,0.812364
458.000,0.812359
458.100,0.812356
458.200,0.812353
458.300,0.812351
458.400,0.812345
458.500,0.812342
458.600,0.812340
458.700,0.812337
458.800,0.812331
458.900,0.812328
459.000,0.812326
459.100,0.812320
459.200,0.812317
459.300,0.812315
459.400,0.812312
459.500,0.812307
459.600,0.812304
459.700,0.812301
459.800,0.812298
459.900,0.812292
460.000,0.812288
460.100,0.812286
460.200,0.812280
460.300,0.812277
460.400,0.812273
460.500,0.812270
460.600,0.812265
460.700,0.812261
460.800,0.812258
460.900,0.812255
461.000,0.812249
461.100,0.812246
461.200,0.812243
461.300,0.812240
461.400,0.812233
461.500,0.812230
461.600,0.812227
461.700,0.812220
461.800,0.812217
461.900,0.812214
462.000,0.812210
462.100,0.812204
462.200,0.812201
462.300,0.812197
462.400,0.812193
462.500,0.812187
462.600,0.812184
462.700,0.812180
462.800,0.812174
462.900,0.812170
463.000,0.812166
463.100,0.812162
463.200,0.812156
463.300,0.812152
463.400,0.812148
463.500,0.812144
463.600,0.812138
463.700,0.812134
463.800,0.812130
463.900,0.812126
464.000,0.812119
464.100,0.812115
464.200,0.812111
464.300,0.812107
464.400,0.812104
464.500,0.812099
464.600,0.812097
464.700,0.812093
464.800,0.812088
464.900,0.812084
465.000,0.812080
465.100,0.812075
465.200,0.812071
465.300,0.812067
465.400,0.812062
465.500,0.812058
465.600,0.812056
465.700,0.812052
465.800,0.812047
465.900,0.812042
466.000,0.812038
466.100,0.812034
466.200,0.812028
466.300,0.812024
466.400,0.812019
466.500,0.812013
466.600,0.812011
466.700,0.812006
466.800,0.812001
466.900,0.811996
467.000,0.811991
467.100,0.811986
467.200,0.811981
467.300,0.811976
467.400,0.811971
467.500,0.811966
467.600,0.811964
467.700,0.811958
467.800,0.811952
467.900,0.811946
468.000,0.811941
468.100,0.811935
468.200,0.811929
468.300,0.811924
468.400,0.811918
468.500,0.811913
468.600,0.811909
468.700,0.811903
468.800,0.811898
468.900,0.811892
469.000,0.811886
469.100,0.811881
469.200,0.811875
469.300,0.811869
469.400,0.811862
469.500,0.811856
469.600,0.811852
469.700,0.811846
469.800,0.811839
469.900,0.811833
470.000,0.811826
470.100,0.811820
470.200,0.811813
470.300,0.811807
470.400,0.811800
470.500,0.811793
470.600,0.811790
470.700,0.811783
470.800,0.811776
470.900,0.811769
471.000,0.811762
471.100,0.811754
471.200,0.811747
471.300,0.811740
471.400,0.811733
471.500,0.811725
471.600,0.811720
471.700,0.811712
471.800,0.811705
471.900,0.811698
472.000,0.811690
472.100,0.811683
472.200,0.811676
472.300,0.811668
472.400,0.811661
472.500,0.811653
472.600,0.811647
472.700,0.811639
472.800,0.811630
472.900,0.811622
473.000,0.811613
473.100,0.811605
473.200,0.811597
473.300,0.811588
473.400,0.811580
473.500,0.811572
473.600,0.811566
473.700,0.811557
473.800,0.811549
473.900,0.811541
474.000,0.811532
474.100,0.811523
474.200,0.811513
474.300,0.811503
474.400,0.811494
474.500,0.811484
474.600,0.811477
474.700,0.811468
474.800,0.811458
474.900,0.811448
475.000,0.811439
475.100,0.811429
475.200,0.811420
475.300,0.811410
475.400,0.811401
475.500,0.811391
475.600,0.811383
475.700,0.811372
475.800,0.811362
475.900,0.811351
476.000,0.811340
476.100,0.811329
476.200,0.811318
476.300,0.811308
476.400,0.811297
476.500,0.811286
476.600,0.811275
476.700,0.811264
476.800,0.811253
476.900,0.811243
477.000,0.811231
477.100,0.811220
477.200,0.811207
477.300,0.811194
477.400,0.811182
477.500,0.811170
477.600,0.811157
477.700,0.811145
477.800,0.811133
477.900,0.811120
478.000,0.811108
478.100,0.811096
478.200,0.811084
478.300,0.811071
478.400,0.811059
478.500,0.811047
478.600,0.811035
478.700,0.811022
478.800,0.811010
478.900,0.810996
479.000,0.810982
479.100,0.810968
479.200,0.810954
479.300,0.810941
479.400,0.810927
479.500,0.810910
479.600,0.810896
479.700,0.810882
479.800,0.810868
479.900,0.810855
480.000,0.810841
480.100,0.810827
480.200,0.810813
480.300,0.810799
480.400,0.810785
480.500,0.810769
480.600,0.810754
480.700,0.810738
480.800,0.810723
480.900,0.810707
481.000,0.810692
481.100,0.810676
481.200,0.810661
481.300,0.810645
481.400,0.810630
481.500,0.810615
481.600,0.810599
481.700,0.810581
481.800,0.810565
481.900,0.810550
482.000,0.810533
482.100,0.810516
482.200,0.810499
482.300,0.810482
482.400,0.810464
482.500,0.810447
482.600,0.810430
482.700,0.810413
482.800,0.810395
482.900,0.810378
483.000,0.810361
483.100,0.810343
483.200,0.810326
483.300,0.810309
483.400,0.810292
483.500,0.810274
483.600,0.810256
483.700,0.810237
483.800,0.810217
483.900,0.810198
484.000,0.810177
484.100,0.810158
484.200,0.810138
484.300,0.810120
484.400,0.810101
484.500,0.810081
484.600,0.810063
484.700,0.810043
484.800,0.810025
484.900,0.810005
485.000,0.809986
485.100,0.809967
485.200,0.809946
485.300,0.809926
485.400,0.809904
485.500,0.809884
485.600,0.809863
485.700,0.809842
485.800,0.809821
485.900,0.809800
486.000,0.809779
486.100,0.809758
486.200,0.809737
486.300,0.809714
486.400,0.809693
486.500,0.809672
486.600,0.809651
486.700,0.809630
486.800,0.809608
486.900,0.809585
487.000,0.809562
487.100,0.809539
487.200,0.809517
487.300,0.809494
487.400,0.809471
487.500,0.809449
487.600,0.809426
487.700,0.809403
487.800,0.809381
487.900,0.809358
488.000,0.809335
488.100,0.809313
488.200,0.809290
488.300,0.809267
488.400,0.809243
488.500,0.809216
488.600,0.809191
488.700,0.809167
488.800,0.809142
488.900,0.809118
489.000,0.809094
489.100,0.809069
489.200,0.809044
489.300,0.809020
489.400,0.808995
489.500,0.808971
489.600,0.808947
489.700,0.808922
489.800,0.808898
489.900,0.808871
490.000,0.808845
490.100,0.808819
490.200,0.808792
490.300,0.808764
490.400,0.808738
490.500,0.808712
490.600,0.808686
490.700,0.808657
490.800,0.808631
490.900,0.808605
491.000,0.808579
491.100,0.808553
491.200,0.808525
491.300,0.808499
491.400,0.808473
491.500,0.808447
491.600,0.808416
491.700,0.808389
491.800,0.808361
491.900,0.808334
492.000,0.808304
492.100,0.808276
492.200,0.808250
492.300,0.808222
492.400,0.808195
492.500,0.808165
492.600,0.808137
492.700,0.808110
492.800,0.808082
492.900,0.808053
493.000,0.808025
493.100,0.807998
493.200,0.807969
493.300,0.807940
493.400,0.807909
493.500,0.807881
493.600,0.807852
493.700,0.807824
493.800,0.807793
493.900,0.807764
494.000,0.807736
494.100,0.807708
494.200,0.807677
494.300,0.807648
494.400,0.807620
494.500,0.807592
494.600,0.807563
494.700,0.807532
494.800,0.807503
494.900,0.807473
495.000,0.807444
495.100,0.807412
495.200,0.807383
495.300,0.807353
495.400,0.807324
495.500,0.807293
495.600,0.807263
495.700,0.807234
495.800,0.807205
495.900,0.807176
496.000,0.807144
496.100,0.807115
496.200,0.807086
496.300,0.807056
496.400,0.807024
496.500,0.806994
496.600,0.806965
496.700,0.806935
496.800,0.806903
496.900,0.806873
497.000,0.806844
497.100,0.806814
497.200,0.806785
497.300,0.806753
497.400,0.806723
497.500,0.806694
497.600,0.806664
497.700,0.806632
497.800,0.806603
497.900,0.806573
498.000,0.806543
498.100,0.806514
498.200,0.806481
498.300,0.806451
498.400,0.806422
498.500,0.806392
498.600,0.806360
498.700,0.806330
498.800,0.806300
498.900,0.806271
499.000,0.806239
499.100,0.806209
499.200,0.806180
499.300,0.806150
499.400,0.806120
499.500,0.806088
499.600,0.806059
499.700,0.806029
499.800,0.806000
499.900,0.805968
500.000,0.805938
500.100,0.805909
500.200,0.805880
500.300,0.805847
500.400,0.805818
500.500,0.805789
500.600,0.805759
500.700,0.805730
500.800,0.805698
500.900,0.805669
501.000,0.805640
501.100,0.805610
501.200,0.805579
501.300,0.805550
501.400,0.805521
501.500,0.805492
501.600,0.805461
501.700,0.805432
501.800,0.805403
501.900,0.805374
502.000,0.805346
502.100,0.805314
502.200,0.805285
502.300,0.805256
502.400,0.805228
502.500,0.805196
502.600,0.805167
502.700,0.805139
502.800,0.805111
502.900,0.805080
503.000,0.805053
503.100,0.805025
503.200,0.804996
503.300,0.804968
503.400,0.804937
503.500,0.804909
503.600,0.804882
503.700,0.804853
503.800,0.804823
503.900,0.804794
504.000,0.804766
504.100,0.804738
504.200,0.804710
504.300,0.804680
504.400,0.804653
504.500,0.804626
504.600,0.804599
504.700,0.804569
504.800,0.804542
504.900,0.804515
505.000,0.804488
505.100,0.804458
505.200,0.804430
505.300,0.804403
505.400,0.804376
505.500,0.804349
505.600,0.804319
505.700,0.804291
505.800,0.804264
505.900,0.804238
506.000,0.804209
506.100,0.804183
506.200,0.804156
506.300,0.804130
506.400,0.804102
506.500,0.804075
506.600,0.804049
506.700,0.804022
506.800,0.803996
506.900,0.803967
507.000,0.803940
507.100,0.803914
507.200,0.803888
507.300,0.803858
507.400,0.803832
507.500,0.803807
507.600,0.803782
507.700,0.803756
507.800,0.803728
507.900,0.803703
508.000,0.803678
508.100,0.803653
508.200,0.803625
508.300,0.803599
508.400,0.803574
508.500,0.803548
508.600,0.803523
508.700,0.803495
508.800,0.803469
508.900,0.803443
509.000,0.803418
509.100,0.803391
509.200,0.803367
509.300,0.803343
509.400,0.803318
509.500,0.803294
509.600,0.803267
509.700,0.803242
509.800,0.803218
509.900,0.803193
510.000,0.803169
510.100,0.803141
510.200,0.803116
510.300,0.803092
510.400,0.803067
510.500,0.803039
510.600,0.803015
510.700,0.802992
510.800,0.802968
510.900,0.802945
511.000,0.802919
511.100,0.802895
511.200,0.802872
511.300,0.802848
511.400,0.802822
511.500,0.802798
511.600,0.802774
511.700,0.802750
511.800,0.802726
511.900,0.802700
512.000,0.802676
512.100,0.802652
512.200,0.802628
512.300,0.802603
512.400,0.802580
512.500,0.802557
512.600,0.802534
512.700,0.802512
512.800,0.802486
512.900,0.802463
513.000,0.802440
513.100,0.802417
513.200,0.802391
513.300,0.802368
513.400,0.802345
513.500,0.802321
513.600,0.802298
513.700,0.802272
513.800,0.802249
513.900,0.802227
514.000,0.802205
514.100,0.802180
514.200,0.802158
514.300,0.802136
514.400,0.802114
514.500,0.802091
514.600,0.802066
514.700,0.802044
514.800,0.802021
514.900,0.801999
515.000,0.801973
515.100,0.801951
515.200,0.801928
515.300,0.801905
515.400,0.801883
515.500,0.801859
515.600,0.801838
515.700,0.801816
515.800,0.801795
515.900,0.801770
516.000,0.801749
516.100,0.801727
516.200,0.801705
516.300,0.801683
516.400,0.801658
516.500,0.801636
516.600,0.801614
516.700,0.801592
516.800,0.801570
516.900,0.801545
517.000,0.801523
517.100,0.801502
517.200,0.801481
517.300,0.801457
517.400,0.801437
517.500,0.801415
517.600,0.801394
517.700,0.801373
517.800,0.801348
517.900,0.801327
518.000,0.801305
518.100,0.801284
518.200,0.801259
518.300,0.801237
518.400,0.801216
518.500,0.801194
518.600,0.801173
518.700,0.801150
518.800,0.801129
518.900,0.801108
519.000,0.801087
519.100,0.801064
519.200,0.801043
519.300,0.801021
519.400,0.801001
519.500,0.800979
519.600,0.800955
519.700,0.800934
519.800,0.800913
519.900,0.800891
520.000,0.800867
520.100,0.800846
520.200,0.800825
520.300,0.800805
520.400,0.800784
520.500,0.800761
520.600,0.800740
520.700,0.800720
520.800,0.800699
520.900,0.800675
521.000,0.800654
521.100,0.800634
521.200,0.800612
521.300,0.800591
521.400,0.800567
521.500,0.800546
521.600,0.800525
521.700,0.800504
521.800,0.800481
521.900,0.800460
522.000,0.800440
522.100,0.800420
522.200,0.800399
522.300,0.800376
522.400,0.800355
522.500,0.800335
522.600,0.800314
522.700,0.800290
522.800,0.800269
522.900,0.800248
523.000,0.800227
523.100,0.800206
523.200,0.800183
523.300,0.800161
523.400,0.800141
523.500,0.800121
523.600,0.800101
523.700,0.800077
523.800,0.800057
523.900,0.800036
524.000,0.800015
524.100,0.799991
524.200,0.799971
524.300,0.799950
524.400,0.799929
524.500,0.799908
524.600,0.799884
524.700,0.799863
524.800,0.799842
524.900,0.799821
525.000,0.799797
525.100,0.799777
525.200,0.799756
525.300,0.799736
525.400,0.799715
525.500,0.799692
525.600,0.799670
525.700,0.799650
525.800,0.799629
525.900,0.799605
526.000,0.799584
526.100,0.799563
526.200,0.799542
526.300,0.799518
526.400,0.799497
526.500,0.799476
526.600,0.799455
526.700,0.799431
526.800,0.799411
526.900,0.799390
527.000,0.799369
527.100,0.799346
527.200,0.799325
527.300,0.799304
527.400,0.799283
527.500,0.799259
527.600,0.799238
527.700,0.799216
527.800,0.799195
527.900,0.799171
528.000,0.799150
528.100,0.799129
528.200,0.799108
528.300,0.799084
528.400,0.799063
528.500,0.799041
528.600,0.799021
528.700,0.798997
528.800,0.798975
528.900,0.798954
529.000,0.798933
529.100,0.798908
529.200,0.798887
529.300,0.798866
529.400,0.798844
529.500,0.798820
529.600,0.798798
529.700,0.798777
529.800,0.798755
529.900,0.798731
530.000,0.798710
530.100,0.798688
530.200,0.798667
530.300,0.798642
530.400,0.798620
530.500,0.798599
530.600,0.798577
530.700,0.798552
530.800,0.798531
530.900,0.798508
531.000,0.798487
531.100,0.798462
531.200,0.798440
531.300,0.798418
531.400,0.798393
531.500,0.798371
531.600,0.798350
531.700,0.798328
531.800,0.798303
531.900,0.798281
532.000,0.798259
532.100,0.798238
532.200,0.798212
532.300,0.798190
532.400,0.798168
532.500,0.798146
532.600,0.798121
532.700,0.798099
532.800,0.798076
532.900,0.798054
533.000,0.798029
533.100,0.798006
533.200,0.797984
533.300,0.797961
533.400,0.797936
533.500,0.797913
533.600,0.797891
533.700,0.797868
533.800,0.797843
533.900,0.797820
534.000,0.797798
534.100,0.797775
534.200,0.797749
534.300,0.797726
534.400,0.797703
534.500,0.797680
534.600,0.797654
534.700,0.797631
534.800,0.797608
534.900,0.797585
535.000,0.797559
535.100,0.797536
535.200,0.797513
535.300,0.797490
535.400,0.797463
535.500,0.797440
535.600,0.797417
535.700,0.797393
535.800,0.797367
535.900,0.797343
536.000,0.797320
536.100,0.797296
536.200,0.797270
536.300,0.797246
536.400,0.797222
536.500,0.797195
536.600,0.797171
536.700,0.797148
536.800,0.797123
536.900,0.797097
537.000,0.797072
537.100,0.797049
537.200,0.797024
537.300,0.796998
537.400,0.796973
537.500,0.796948
537.600,0.796924
537.700,0.796896
537.800,0.796872
537.900,0.796847
538.000,0.796822
538.100,0.796794
538.200,0.796770
538.300,0.796745
538.400,0.796720
538.500,0.796691
538.600,0.796666
538.700,0.796641
538.800,0.796616
538.900,0.796587
539.000,0.796562
539.100,0.796537
539.200,0.796511
539.300,0.796483
539.400,0.796456
539.500,0.796430
539.600,0.796404
539.700,0.796375
539.800,0.796349
539.900,0.796322
540.000,0.796297
540.100,0.796267
540.200,0.796241
540.300,0.796214
540.400,0.796187
540.500,0.796158
540.600,0.796131
540.700,0.796104
540.800,0.796077
540.900,0.796047
541.000,0.796020
541.100,0.795992
541.200,0.795964
541.300,0.795933
541.400,0.795905
541.500,0.795877
541.600,0.795846
541.700,0.795817
541.800,0.795790
541.900,0.795760
542.000,0.795729
542.100,0.795701
542.200,0.795671
542.300,0.795643
542.400,0.795611
542.500,0.795582
542.600,0.795552
542.700,0.795522
542.800,0.795489
542.900,0.795458
543.000,0.795428
543.100,0.795397
543.200,0.795364
543.300,0.795332
543.400,0.795302
543.500,0.795270
543.600,0.795236
543.700,0.795205
543.800,0.795173
543.900,0.795142
544.000,0.795107
544.100,0.795075
544.200,0.795042
544.300,0.795009
544.400,0.794972
544.500,0.794938
544.600,0.794905
544.700,0.794870
544.800,0.794833
544.900,0.794799
545.000,0.794765
545.100,0.794729
545.200,0.794691
545.300,0.794658
545.400,0.794622
545.500,0.794587
545.600,0.794549
545.700,0.794513
545.800,0.794476
545.900,0.794439
546.000,0.794399
546.100,0.794361
546.200,0.794323
546.300,0.794285
546.400,0.794244
546.500,0.794205
546.600,0.794166
546.700,0.794127
546.800,0.794088
546.900,0.794050
547.000,0.794010
547.100,0.793971
547.200,0.793928
547.300,0.793886
547.400,0.793846
547.500,0.793804
547.600,0.793762
547.700,0.793717
547.800,0.793675
547.900,0.793631
548.000,0.793587
548.100,0.793544
548.200,0.793499
548.300,0.793456
548.400,0.793411
548.500,0.793367
548.600,0.793318
548.700,0.793272
548.800,0.793228
548.900,0.793180
549.000,0.793135
549.100,0.793086
549.200,0.793038
549.300,0.792988
549.400,0.792938
549.500,0.792889
549.600,0.792838
549.700,0.792788
549.800,0.792737
549.900,0.792682
550.000,0.792632
550.100,0.792580
550.200,0.792529
550.300,0.792476
550.400,0.792425
550.500,0.792370
550.600,0.792316
550.700,0.792262
550.800,0.792204
550.900,0.792148
551.000,0.792089
551.100,0.792032
551.200,0.791970
551.300,0.791910
551.400,0.791853
551.500,0.791793
551.600,0.791734
551.700,0.791673
551.800,0.791612
551.900,0.791553
552.000,0.791491
552.100,0.791429
552.200,0.791366
552.300,0.791303
552.400,0.791235
552.500,0.791167
552.600,0.791098
552.700,0.791030
552.800,0.790962
552.900,0.790893
553.000,0.790823
553.100,0.790755
553.200,0.790684
553.300,0.790615
553.400,0.790544
553.500,0.790473
553.600,0.790400
553.700,0.790327
553.800,0.790254
553.900,0.790174
554.000,0.790097
554.100,0.790018
554.200,0.789937
554.300,0.789859
554.400,0.789778
554.500,0.789699
554.600,0.789616
554.700,0.789536
554.800,0.789453
554.900,0.789369
555.000,0.789287
555.100,0.789202
555.200,0.789115
555.300,0.789029
555.400,0.788941
555.500,0.788851
555.600,0.788759
555.700,0.788668
555.800,0.788575
555.900,0.788479
556.000,0.788386
556.100,0.788291
556.200,0.788196
556.300,0.788098
556.400,0.788001
556.500,0.787904
556.600,0.787802
556.700,0.787704
556.800,0.787603
556.900,0.787504
557.000,0.787401
557.100,0.787293
557.200,0.787186
557.300,0.787078
557.400,0.786970
557.500,0.786858
557.600,0.786747
557.700,0.786637
557.800,0.786523
557.900,0.786410
558.000,0.786294
558.100,0.786177
558.200,0.786063
558.300,0.785947
558.400,0.785830
558.500,0.785711
558.600,0.785590
558.700,0.785468
558.800,0.785340
558.900,0.785216
559.000,0.785087
559.100,0.784959
559.200,0.784827
559.300,0.784696
559.400,0.784566
559.500,0.784434
559.600,0.784299
559.700,0.784168
559.800,0.784031
559.900,0.783898
560.000,0.783760
560.100,0.783621
560.200,0.783482
560.300,0.783337
560.400,0.783195
560.500,0.783047
560.600,0.782896
560.700,0.782750
560.800,0.782600
560.900,0.782452
561.000,0.782299
561.100,0.782145
561.200,0.781993
561.300,0.781838
561.400,0.781684
561.500,0.781527
561.600,0.781369
561.700,0.781211
561.800,0.781051
561.900,0.780886
562.000,0.780720
562.100,0.780552
562.200,0.780387
562.300,0.780218
562.400,0.780052
562.500,0.779879
562.600,0.779707
562.700,0.779536
562.800,0.779361
562.900,0.779188
563.000,0.779010
563.100,0.778832
563.200,0.778652
563.300,0.778473
563.400,0.778295
563.500,0.778110
563.600,0.777925
563.700,0.777742
563.800,0.777554
563.900,0.777369
564.000,0.777179
564.100,0.776988
564.200,0.776799
564.300,0.776607
564.400,0.776416
564.500,0.776219
564.600,0.776020
564.700,0.775826
564.800,0.775628
564.900,0.775430
565.000,0.775234
565.100,0.775034
565.200,0.774835
565.300,0.774633
565.400,0.774432
565.500,0.774230
565.600,0.774024
565.700,0.773821
565.800,0.773614
565.900,0.773405
566.000,0.773199
566.100,0.772987
566.200,0.772781
566.300,0.772568
566.400,0.772358
566.500,0.772146
566.600,0.771934
566.700,0.771724
566.800,0.771515
566.900,0.771304
567.000,0.771094
567.100,0.770880
567.200,0.770665
567.300,0.770453
567.400,0.770235
567.500,0.770021
567.600,0.769803
567.700,0.769585
567.800,0.769368
567.900,0.769151
568.000,0.768936
568.100,0.768719
568.200,0.768505
568.300,0.768295
568.400,0.768082
568.500,0.767870
568.600,0.767658
568.700,0.767444
568.800,0.767232
568.900,0.767016
569.000,0.766800
569.100,0.766582
569.200,0.766366
569.300,0.766153
569.400,0.765937
569.500,0.765721
569.600,0.765510
569.700,0.765299
569.800,0.765092
569.900,0.764891
570.000,0.764689
570.100,0.764486
570.200,0.764285
570.300,0.764080
570.400,0.763879
570.500,0.763677
570.600,0.763473
570.700,0.763273
570.800,0.763069
570.900,0.762869
571.000,0.762668
571.100,0.762468
571.200,0.762275
571.300,0.762081
571.400,0.761899
571.500,0.761720
571.600,0.761535
571.700,0.761357
571.800,0.761178
571.900,0.761000
572.000,0.760821
572.100,0.760646
572.200,0.760471
572.300,0.760294
572.400,0.760121
572.500,0.759946
572.600,0.759774
572.700,0.759606
572.800,0.759444
572.900,0.759284
573.000,0.759133
573.100,0.758989
573.200,0.758847
573.300,0.758703
573.400,0.758563
573.500,0.758423
573.600,0.758283
573.700,0.758145
573.800,0.758006
573.900,0.757872
574.000,0.757740
574.100,0.757605
574.200,0.757471
574.300,0.757345
574.400,0.757227
574.500,0.757111
574.600,0.757006
574.700,0.756910
574.800,0.756814
574.900,0.756718
575.000,0.756624
575.100,0.756530
575.200,0.756439
575.300,0.756350
575.400,0.756262
575.500,0.756175
575.600,0.756092
575.700,0.756008
575.800,0.755928
575.900,0.755859
576.000,0.755790
576.100,0.755732
576.200,0.755679
576.300,0.755634
576.400,0.755593
576.500,0.755547
576.600,0.755509
576.700,0.755467
576.800,0.755425
576.900,0.755395
577.000,0.755356
577.100,0.755327
577.200,0.755302
577.300,0.755268
577.400,0.755244
577.500,0.755235
577.600,0.755219
577.700,0.755217
577.800,0.755224
577.900,0.755226
578.000,0.755236
578.100,0.755243
578.200,0.755257
578.300,0.755276
578.400,0.755284
578.500,0.755308
578.600,0.755328
578.700,0.755347
578.800,0.755372
578.900,0.755395
579.000,0.755422
579.100,0.755465
579.200,0.755501
579.300,0.755548
579.400,0.755604
579.500,0.755652
579.600,0.755713
579.700,0.755770
579.800,0.755824
579.900,0.755890
580.000,0.755946
580.100,0.756015
580.200,0.756084
580.300,0.756146
580.400,0.756219
580.500,0.756295
580.600,0.756362
580.700,0.756447
580.800,0.756538
580.900,0.756616
581.000,0.756708
581.100,0.756793
581.200,0.756889
581.300,0.756989
581.400,0.757076
581.500,0.757179
581.600,0.757279
581.700,0.757370
581.800,0.757472
581.900,0.757578
582.000,0.757674
582.100,0.757782
582.200,0.757882
582.300,0.757999
582.400,0.758119
582.500,0.758225
582.600,0.758345
582.700,0.758463
582.800,0.758570
582.900,0.758693
583.000,0.758813
583.100,0.758926
583.200,0.759048
583.300,0.759173
583.400,0.759288
583.500,0.759415
583.600,0.759532
583.700,0.759661
583.800,0.759791
583.900,0.759914
584.000,0.760049
584.100,0.760177
584.200,0.760295
584.300,0.760422
584.400,0.760551
584.500,0.760665
584.600,0.760798
584.700,0.760930
584.800,0.761049
584.900,0.761181
585.000,0.761303
585.100,0.761437
585.200,0.761574
585.300,0.761694
585.400,0.761831
585.500,0.761966
585.600,0.762087
585.700,0.762214
585.800,0.762340
585.900,0.762451
586.000,0.762577
586.100,0.762702
586.200,0.762816
586.300,0.762946
586.400,0.763060
586.500,0.763183
586.600,0.763314
586.700,0.763427
586.800,0.763557
586.900,0.763686
587.000,0.763803
587.100,0.763917
587.200,0.764037
587.300,0.764124
587.400,0.764233
587.500,0.764336
587.600,0.764429
587.700,0.764533
587.800,0.764642
587.900,0.764731
588.000,0.764839
588.100,0.764933
588.200,0.765037
588.300,0.765141
588.400,0.765234
588.500,0.765342
588.600,0.765446
588.700,0.765518
588.800,0.765604
588.900,0.765679
589.000,0.765735
589.100,0.765809
589.200,0.765884
589.300,0.765944
589.400,0.766021
589.500,0.766094
589.600,0.766155
589.700,0.766230
589.800,0.766307
589.900,0.766365
590.000,0.766439
590.100,0.766500
590.200,0.766569
590.300,0.766627
590.400,0.766671
590.500,0.766718
590.600,0.766765
590.700,0.766797
590.800,0.766845
590.900,0.766893
591.000,0.766924
591.100,0.766972
591.200,0.767018
591.300,0.767053
591.400,0.767101
591.500,0.767150
591.600,0.767180
591.700,0.767232
591.800,0.767269
591.900,0.767288
592.000,0.767317
592.100,0.767339
592.200,0.767345
592.300,0.767363
592.400,0.767389
592.500,0.767391
592.600,0.767418
592.700,0.767421
592.800,0.767447
592.900,0.767466
593.000,0.767474
593.100,0.767494
593.200,0.767521
593.300,0.767529
593.400,0.767546
593.500,0.767552
593.600,0.767537
593.700,0.767531
593.800,0.767534
593.900,0.767514
594.000,0.767515
594.100,0.767509
594.200,0.767495
594.300,0.767493
594.400,0.767493
594.500,0.767472
594.600,0.767475
594.700,0.767473
594.800,0.767456
594.900,0.767456
595.000,0.767447
595.100,0.767411
595.200,0.767397
595.300,0.767369
595.400,0.767330
595.500,0.767306
595.600,0.767283
595.700,0.767246
595.800,0.767223
595.900,0.767203
596.000,0.767162
596.100,0.767143
596.200,0.767120
596.300,0.767081
596.400,0.767058
596.500,0.767040
596.600,0.766991
596.700,0.766952
596.800,0.766913
596.900,0.766854
597.000,0.766814
597.100,0.766751
597.200,0.766711
597.300,0.766670
597.400,0.766610
597.500,0.766570
597.600,0.766530
597.700,0.766472
597.800,0.766432
597.900,0.766390
598.000,0.766331
598.100,0.766291
598.200,0.766241
598.300,0.766165
598.400,0.766107
598.500,0.766051
598.600,0.765976
598.700,0.765918
598.800,0.765863
598.900,0.765782
599.000,0.765727
599.100,0.765668
599.200,0.765594
599.300,0.765534
599.400,0.765480
599.500,0.765404
599.600,0.765349
599.700,0.765290
599.800,0.765205
599.900,0.765129
600.000,0.765058
600.100,0.764967
600.200,0.764898
600.300,0.764825
600.400,0.764740
600.500,0.764669
600.600,0.764598
600.700,0.764504
600.800,0.764435
600.900,0.764365
601.000,0.764273
601.100,0.764203
601.200,0.764135
601.300,0.764042
601.400,0.763965
601.500,0.763874
601.600,0.763774
601.700,0.763690
601.800,0.763613
601.900,0.763513
602.000,0.763427
602.100,0.763351
602.200,0.763247
602.300,0.763170
602.400,0.763083
602.500,0.762985
602.600,0.762905
602.700,0.762827
602.800,0.762725
602.900,0.762644
603.000,0.762556
603.100,0.762459
603.200,0.762351
603.300,0.762269
603.400,0.762186
603.500,0.762080
603.600,0.761992
603.700,0.761912
603.800,0.761803
603.900,0.761725
604.000,0.761642
604.100,0.761531
604.200,0.761447
604.300,0.761367
604.400,0.761260
604.500,0.761181
604.600,0.761085
604.700,0.760966
604.800,0.760883
604.900,0.760804
605.000,0.760694
605.100,0.760616
605.200,0.760534
605.300,0.760427
605.400,0.760346
605.500,0.760265
605.600,0.760166
605.700,0.760086
605.800,0.760006
605.900,0.759898
606.000,0.759823
606.100,0.759747
606.200,0.759632
606.300,0.759548
606.400,0.759483
606.500,0.759384
606.600,0.759313
606.700,0.759246
606.800,0.759153
606.900,0.759087
607.000,0.759024
607.100,0.758924
607.200,0.758864
607.300,0.758801
607.400,0.758742
607.500,0.758645
607.600,0.758586
607.700,0.758524
607.800,0.758432
607.900,0.758374
608.000,0.758330
608.100,0.758255
608.200,0.758217
608.300,0.758174
608.400,0.758104
608.500,0.758066
608.600,0.758027
608.700,0.757958
608.800,0.757921
608.900,0.757885
609.000,0.757818
609.100,0.757785
609.200,0.757758
609.300,0.757692
609.400,0.757672
609.500,0.757659
609.600,0.757626
609.700,0.757629
609.800,0.757629
609.900,0.757602
610.000,0.757601
610.100,0.757615
610.200,0.757620
610.300,0.757603
610.400,0.757617
610.500,0.757636
610.600,0.757615
610.700,0.757642
610.800,0.757661
610.900,0.757651
611.000,0.757698
611.100,0.757749
611.200,0.757787
611.300,0.757853
611.400,0.757929
611.500,0.757965
611.600,0.758043
611.700,0.758127
611.800,0.758174
611.900,0.758261
612.000,0.758352
612.100,0.758449
612.200,0.758511
612.300,0.758606
612.400,0.758719
612.500,0.758787
612.600,0.758931
612.700,0.759093
612.800,0.759225
612.900,0.759390
613.000,0.759564
613.100,0.759712
613.200,0.759896
613.300,0.760090
613.400,0.760239
613.500,0.760439
613.600,0.760645
613.700,0.760815
613.800,0.761024
613.900,0.761240
614.000,0.761471
614.100,0.761660
614.200,0.761943
614.300,0.762238
614.400,0.762500
614.500,0.762809
614.600,0.763120
614.700,0.763396
614.800,0.763719
614.900,0.764061
615.000,0.764350
615.100,0.764696
615.200,0.765040
615.300,0.765353
615.400,0.765715
615.500,0.766083
615.600,0.766464
615.700,0.766809
615.800,0.767260
615.900,0.767727
616.000,0.768154
616.100,0.768632
616.200,0.769120
616.300,0.769568
616.400,0.770070
616.500,0.770584
616.600,0.771043
616.700,0.771567
616.800,0.772098
616.900,0.772586
617.000,0.773134
617.100,0.773674
617.200,0.774238
617.300,0.774778
617.400,0.775432
617.500,0.776090
617.600,0.776712
617.700,0.777387
617.800,0.778067
617.900,0.778718
618.000,0.779412
618.100,0.780125
618.200,0.780783
618.300,0.781507
618.400,0.782235
618.500,0.782973
618.600,0.783667
618.700,0.784422
618.800,0.785177
618.900,0.785927
619.000,0.786769
619.100,0.787632
619.200,0.788445
619.300,0.789321
619.400,0.790192
619.500,0.791031
619.600,0.791921
619.700,0.792818
619.800,0.793721
619.900,0.794581
620.000,0.795503
620.100,0.796419
620.200,0.797302
620.300,0.798239
620.400,0.799178
620.500,0.800110
620.600,0.801138
620.700,0.802166
620.800,0.803146
620.900,0.804191
621.000,0.805228
621.100,0.806276
621.200,0.807272
621.300,0.808333
621.400,0.809397
621.500,0.810405
621.600,0.811484
621.700,0.812550
621.800,0.813580
621.900,0.814655
622.000,0.815739
622.100,0.816867
622.200,0.817946
622.300,0.819089
622.400,0.820218
622.500,0.821318
622.600,0.822454
622.700,0.823599
622.800,0.824689
622.900,0.825833
623.000,0.826983
623.100,0.828131
623.200,0.829238
623.300,0.830380
623.400,0.831532
623.500,0.832635
623.600,0.833786
623.700,0.834961
623.800,0.836080
623.900,0.837250
624.000,0.838414
624.100,0.839578
624.200,0.840695
624.300,0.841846
624.400,0.843017
624.500,0.844126
624.600,0.845287
624.700,0.846436
624.800,0.847545
624.900,0.848689
625.000,0.849833
625.100,0.850939
625.200,0.852077
625.300,0.853222
625.400,0.854339
625.500,0.855425
625.600,0.856534
625.700,0.857653
625.800,0.858719
625.900,0.859820
626.000,0.860916
626.100,0.862009
626.200,0.863062
626.300,0.864146
626.400,0.865227
626.500,0.866266
626.600,0.867341
626.700,0.868405
626.800,0.869429
626.900,0.870472
627.000,0.871477
627.100,0.872483
627.200,0.873445
627.300,0.874430
627.400,0.875421
627.500,0.876368
627.600,0.877343
627.700,0.878312
627.800,0.879247
627.900,0.880206
628.000,0.881158
628.100,0.882108
628.200,0.883009
628.300,0.883945
628.400,0.884883
628.500,0.885740
628.600,0.886595
628.700,0.887447
628.800,0.888272
628.900,0.889106
629.000,0.889943
629.100,0.890768
629.200,0.891571
629.300,0.892381
629.400,0.893196
629.500,0.893970
629.600,0.894774
629.700,0.895574
629.800,0.896354
629.900,0.897114
630.000,0.897894
630.100,0.898608
630.200,0.899273
630.300,0.899955
630.400,0.900641
630.500,0.901309
630.600,0.901955
630.700,0.902620
630.800,0.903277
630.900,0.903911
631.000,0.904552
631.100,0.905203
631.200,0.905810
631.300,0.906444
631.400,0.907077
631.500,0.907698
631.600,0.908297
631.700,0.908833
631.800,0.909360
631.900,0.909858
632.000,0.910376
632.100,0.910886
632.200,0.911398
632.300,0.911876
632.400,0.912380
632.500,0.912872
632.600,0.913343
632.700,0.913826
632.800,0.914308
632.900,0.914792
633.000,0.915247
633.100,0.915714
633.200,0.916181
633.300,0.916542
633.400,0.916913
633.500,0.917275
633.600,0.917629
633.700,0.917990
633.800,0.918351
633.900,0.918701
634.000,0.919032
634.100,0.919384
634.200,0.919730
634.300,0.920057
634.400,0.920395
634.500,0.920736
634.600,0.921059
634.700,0.921374
634.800,0.921696
634.900,0.921937
635.000,0.922159
635.100,0.922395
635.200,0.922626
635.300,0.922849
635.400,0.923065
635.500,0.923286
635.600,0.923509
635.700,0.923716
635.800,0.923928
635.900,0.924144
636.000,0.924359
636.100,0.924558
636.200,0.924767
636.300,0.924969
636.400,0.925150
636.500,0.925267
636.600,0.925387
636.700,0.925503
636.800,0.925602
636.900,0.925715
637.000,0.925823
637.100,0.925921
637.200,0.926031
637.300,0.926135
637.400,0.926240
637.500,0.926331
637.600,0.926432
637.700,0.926531
637.800,0.926617
637.900,0.926717
638.000,0.926794
638.100,0.926808
638.200,0.926810
638.300,0.926822
638.400,0.926838
638.500,0.926836
638.600,0.926843
638.700,0.926856
638.800,0.926862
638.900,0.926858
639.000,0.926867
639.100,0.926871
639.200,0.926866
639.300,0.926869
639.400,0.926872
639.500,0.926872
639.600,0.926848
639.700,0.926770
639.800,0.926695
639.900,0.926608
640.000,0.926527
640.100,0.926450
640.200,0.926373
640.300,0.926287
640.400,0.926208
640.500,0.926131
640.600,0.926042
640.700,0.925961
640.800,0.925880
640.900,0.925801
641.000,0.925708
641.100,0.925632
641.200,0.925522
641.300,0.925369
641.400,0.925208
641.500,0.925053
641.600,0.924899
641.700,0.924739
641.800,0.924585
641.900,0.924428
642.000,0.924280
642.100,0.924116
642.200,0.923961
642.300,0.923813
642.400,0.923649
642.500,0.923496
642.600,0.923343
642.700,0.923191
642.800,0.923004
642.900,0.922790
643.000,0.922576
643.100,0.922353
643.200,0.922141
643.300,0.921932
643.400,0.921719
643.500,0.921499
643.600,0.921288
643.700,0.921078
643.800,0.920866
643.900,0.920648
644.000,0.920442
644.100,0.920232
644.200,0.920015
644.300,0.919807
644.400,0.919580
644.500,0.919326
644.600,0.919067
644.700,0.918820
644.800,0.918569
644.900,0.918314
645.000,0.918066
645.100,0.917814
645.200,0.917569
645.300,0.917316
645.400,0.917069
645.500,0.916826
645.600,0.916583
645.700,0.916332
645.800,0.916086
645.900,0.915843
646.000,0.915574
646.100,0.915300
646.200,0.915025
646.300,0.914751
646.400,0.914468
646.500,0.914196
646.600,0.913924
646.700,0.913650
646.800,0.913371
646.900,0.913105
647.000,0.912836
647.100,0.912558
647.200,0.912290
647.300,0.912027
647.400,0.911762
647.500,0.911485
647.600,0.911207
647.700,0.910922
647.800,0.910630
647.900,0.910348
648.000,0.910064
648.100,0.909782
648.200,0.909490
648.300,0.909210
648.400,0.908930
648.500,0.908647
648.600,0.908361
648.700,0.908084
648.800,0.907808
648.900,0.907525
649.000,0.907249
649.100,0.906975
649.200,0.906694
649.300,0.906410
649.400,0.906133
649.500,0.905855
649.600,0.905580
649.700,0.905299
649.800,0.905022
649.900,0.904749
650.000,0.904469
650.100,0.904195
650.200,0.903924
650.300,0.903654
650.400,0.903368
650.500,0.903100
650.600,0.902831
650.700,0.902561
650.800,0.902301
650.900,0.902052
651.000,0.901801
651.100,0.901555
651.200,0.901301
651.300,0.901051
651.400,0.900804
651.500,0.900550
651.600,0.900306
651.700,0.900057
651.800,0.899813
651.900,0.899558
652.000,0.899311
652.100,0.899067
652.200,0.898824
652.300,0.898568
652.400,0.898366
652.500,0.898174
652.600,0.897973
652.700,0.897778
652.800,0.897585
652.900,0.897389
653.000,0.897188
653.100,0.896991
653.200,0.896797
653.300,0.896602
653.400,0.896399
653.500,0.896207
653.600,0.896008
653.700,0.895816
653.800,0.895609
653.900,0.895414
654.000,0.895288
654.100,0.895165
654.200,0.895048
654.300,0.894933
654.400,0.894816
654.500,0.894691
654.600,0.894575
654.700,0.894458
654.800,0.894339
654.900,0.894214
655.000,0.894095
655.100,0.893976
655.200,0.893855
655.300,0.893727
655.400,0.893606
655.500,0.893484
655.600,0.893455
655.700,0.893449
655.800,0.893439
655.900,0.893431
656.000,0.893408
656.100,0.893400
656.200,0.893386
656.300,0.893375
656.400,0.893353
656.500,0.893339
656.600,0.893328
656.700,0.893313
656.800,0.893291
656.900,0.893275
657.000,0.893262
657.100,0.893233
657.200,0.893353
657.300,0.893473
657.400,0.893588
657.500,0.893700
657.600,0.893819
657.700,0.893940
657.800,0.894056
657.900,0.894166
658.000,0.894286
658.100,0.894409
658.200,0.894530
658.300,0.894635
658.400,0.894755
658.500,0.894876
658.600,0.894996
658.700,0.895115
658.800,0.895373
658.900,0.895635
659.000,0.895884
659.100,0.896146
659.200,0.896409
659.300,0.896672
659.400,0.896923
659.500,0.897189
659.600,0.897455
659.700,0.897722
659.800,0.897981
659.900,0.898253
660.000,0.898522
660.100,0.898794
660.200,0.899052
660.300,0.899337
660.400,0.899737
660.500,0.900136
660.600,0.900527
660.700,0.900931
660.800,0.901336
660.900,0.901730
661.000,0.902140
661.100,0.902551
661.200,0.902965
661.300,0.903365
661.400,0.903778
661.500,0.904196
661.600,0.904614
661.700,0.905024
661.800,0.905442
661.900,0.905887
662.000,0.906401
662.100,0.906902
662.200,0.907418
662.300,0.907933
662.400,0.908453
662.500,0.908962
662.600,0.909488
662.700,0.910013
662.800,0.910544
662.900,0.911061
663.000,0.911587
663.100,0.912121
663.200,0.912655
663.300,0.913178
663.400,0.913719
663.500,0.914267
663.600,0.914839
663.700,0.915426
663.800,0.916015
663.900,0.916603
664.000,0.917183
664.100,0.917773
664.200,0.918369
664.300,0.918960
664.400,0.919545
664.500,0.920141
664.600,0.920740
664.700,0.921338
664.800,0.921929
664.900,0.922535
665.000,0.923137
665.100,0.923745
665.200,0.924338
665.300,0.924949
665.400,0.925559
665.500,0.926169
665.600,0.926770
665.700,0.927377
665.800,0.927991
665.900,0.928603
666.000,0.929208
666.100,0.929820
666.200,0.930433
666.300,0.931048
666.400,0.931653
666.500,0.932269
666.600,0.932885
666.700,0.933486
666.800,0.934064
666.900,0.934645
667.000,0.935233
667.100,0.935812
667.200,0.936390
667.300,0.936972
667.400,0.937556
667.500,0.938128
667.600,0.938714
667.700,0.939294
667.800,0.939879
667.900,0.940455
668.000,0.941035
668.100,0.941620
668.200,0.942197
668.300,0.942749
668.400,0.943287
668.500,0.943819
668.600,0.944351
668.700,0.944874
668.800,0.945405
668.900,0.945935
669.000,0.946469
669.100,0.946990
669.200,0.947517
669.300,0.948044
669.400,0.948572
669.500,0.949095
669.600,0.949620
669.700,0.950148
669.800,0.950672
669.900,0.951160
670.000,0.951624
670.100,0.952090
670.200,0.952559
670.300,0.953015
670.400,0.953483
670.500,0.953942
670.600,0.954403
670.700,0.954862
670.800,0.955320
670.900,0.955783
671.000,0.956240
671.100,0.956690
671.200,0.957150
671.300,0.957604
671.400,0.958057
671.500,0.958476
671.600,0.958870
671.700,0.959272
671.800,0.959666
671.900,0.960060
672.000,0.960453
672.100,0.960844
672.200,0.961240
672.300,0.961626
672.400,0.962020
672.500,0.962409
672.600,0.962795
672.700,0.963183
672.800,0.963569
672.900,0.963958
673.000,0.964343
673.100,0.964691
673.200,0.965021
673.300,0.965356
673.400,0.965685
673.500,0.966015
673.600,0.966348
673.700,0.966674
673.800,0.967005
673.900,0.967325
674.000,0.967655
674.100,0.967984
674.200,0.968306
674.300,0.968630
674.400,0.968952
674.500,0.969277
674.600,0.969602
674.700,0.969886
674.800,0.970162
674.900,0.970438
675.000,0.970717
675.100,0.970990
675.200,0.971263
675.300,0.971535
675.400,0.971813
675.500,0.972081
675.600,0.972353
675.700,0.972623
675.800,0.972897
675.900,0.973164
676.000,0.973432
676.100,0.973700
676.200,0.973973
676.300,0.974204
676.400,0.974434
676.500,0.974663
676.600,0.974890
676.700,0.975115
676.800,0.975342
676.900,0.975568
677.000,0.975795
677.100,0.976017
677.200,0.976242
677.300,0.976465
677.400,0.976689
677.500,0.976911
677.600,0.977133
677.700,0.977361
677.800,0.977583
677.900,0.977770
678.000,0.977959
678.100,0.978147
678.200,0.978336
678.300,0.978524
678.400,0.978709
678.500,0.978897
678.600,0.979083
678.700,0.979269
678.800,0.979453
678.900,0.979638
679.000,0.979823
679.100,0.980008
679.200,0.980191
679.300,0.980375
679.400,0.980559
679.500,0.980717
679.600,0.980872
679.700,0.981029
679.800,0.981184
679.900,0.981340
680.000,0.981494
680.100,0.981649
680.200,0.981804
680.300,0.981959
680.400,0.982112
680.500,0.982266
680.600,0.982419
680.700,0.982572
680.800,0.982724
680.900,0.982876
681.000,0.983028
681.100,0.983159
681.200,0.983285
681.300,0.983415
681.400,0.983545
681.500,0.983675
681.600,0.983804
681.700,0.983928
681.800,0.984057
681.900,0.984186
682.000,0.984315
682.100,0.984437
682.200,0.984565
682.300,0.984693
682.400,0.984821
682.500,0.984947
682.600,0.985069
682.700,0.985175
682.800,0.985286
682.900,0.985392
683.000,0.985498
683.100,0.985608
683.200,0.985713
683.300,0.985822
683.400,0.985927
683.500,0.986031
683.600,0.986141
683.700,0.986245
683.800,0.986354
683.900,0.986458
684.000,0.986561
684.100,0.986669
684.200,0.986767
684.300,0.986859
684.400,0.986946
684.500,0.987038
684.600,0.987126
684.700,0.987218
684.800,0.987304
684.900,0.987395
685.000,0.987481
685.100,0.987567
685.200,0.987658
685.300,0.987744
685.400,0.987835
685.500,0.987924
685.600,0.988014
685.700,0.988099
685.800,0.988184
685.900,0.988259
686.000,0.988333
686.100,0.988407
686.200,0.988481
686.300,0.988556
686.400,0.988630
686.500,0.988703
686.600,0.988777
686.700,0.988850
686.800,0.988923
686.900,0.988996
687.000,0.989069
687.100,0.989143
687.200,0.989216
687.300,0.989289
687.400,0.989356
687.500,0.989418
687.600,0.989480
687.700,0.989542
687.800,0.989604
687.900,0.989666
688.000,0.989728
688.100,0.989790
688.200,0.989851
688.300,0.989912
688.400,0.989973
688.500,0.990035
688.600,0.990095
688.700,0.990156
688.800,0.990218
688.900,0.990279
689.000,0.990334
689.100,0.990390
689.200,0.990440
689.300,0.990490
689.400,0.990540
689.500,0.990590
689.600,0.990645
689.700,0.990695
689.800,0.990745
689.900,0.990794
690.000,0.990849
690.100,0.990899
690.200,0.990948
690.300,0.990997
690.400,0.991052
690.500,0.991102
690.600,0.991145
690.700,0.991189
690.800,0.991233
690.900,0.991277
691.000,0.991320
691.100,0.991363
691.200,0.991407
691.300,0.991445
691.400,0.991489
691.500,0.991532
691.600,0.991575
691.700,0.991619
691.800,0.991662
691.900,0.991699
692.000,0.991742
692.100,0.991785
692.200,0.991824
692.300,0.991861
692.400,0.991899
692.500,0.991931
692.600,0.991968
692.700,0.992000
692.800,0.992038
692.900,0.992075
693.000,0.992107
693.100,0.992145
693.200,0.992176
693.300,0.992213
693.400,0.992251
693.500,0.992282
693.600,0.992319
693.700,0.992350
693.800,0.992381
693.900,0.992414
694.000,0.992445
694.100,0.992471
694.200,0.992503
694.300,0.992529
694.400,0.992560
694.500,0.992586
694.600,0.992617
694.700,0.992648
694.800,0.992675
694.900,0.992706
695.000,0.992731
695.100,0.992762
695.200,0.992793
695.300,0.992818
695.400,0.992844
695.500,0.992869
695.600,0.992896
695.700,0.992916
695.800,0.992941
695.900,0.992966
696.000,0.992986
696.100,0.993011
696.200,0.993036
696.300,0.993061
696.400,0.993082
696.500,0.993107
696.600,0.993132
696.700,0.993151
696.800,0.993176
696.900,0.993201
697.000,0.993221
697.100,0.993240
697.200,0.993259
697.300,0.993280
697.400,0.993299
697.500,0.993319
697.600,0.993338
697.700,0.993357
697.800,0.993376
697.900,0.993395
698.000,0.993414
698.100,0.993428
698.200,0.993448
698.300,0.993467
698.400,0.993486
698.500,0.993504
698.600,0.993524
698.700,0.993537
698.800,0.993551
698.900,0.993564
699.000,0.993583
699.100,0.993597
699.200,0.993610
699.300,0.993629
699.400,0.993642
699.500,0.993656
699.600,0.993669
699.700,0.993687
699.800,0.993699
699.900,0.993714
700.000,0.993727
700.100,0.993745
700.200,0.993752
700.300,0.993765
700.400,0.993779
700.500,0.993791
700.600,0.993804
700.700,0.993812
700.800,0.993826
700.900,0.993838
701.000,0.993850
701.100,0.993857
701.200,0.993869
701.300,0.993884
701.400,0.993896
701.500,0.993908
701.600,0.993916
701.700,0.993929
701.800,0.993936
701.900,0.993949
702.000,0.993955
702.100,0.993963
702.200,0.993971
702.300,0.993983
702.400,0.993989
702.500,0.993997
702.600,0.994004
702.700,0.994016
702.800,0.994023
702.900,0.994029
703.000,0.994043
703.100,0.994050
703.200,0.994056
703.300,0.994062
703.400,0.994069
703.500,0.994076
703.600,0.994084
703.700,0.994090
703.800,0.994095
703.900,0.994104
704.000,0.994110
704.100,0.994110
704.200,0.994117
704.300,0.994122
704.400,0.994130
704.500,0.994137
704.600,0.994142
704.700,0.994148
704.800,0.994156
704.900,0.994156
705.000,0.994161
705.100,0.994162
705.200,0.994169
705.300,0.994169
705.400,0.994176
705.500,0.994175
705.600,0.994180
705.700,0.994189
705.800,0.994188
705.900,0.994193
706.000,0.994194
706.100,0.994201
706.200,0.994200
706.300,0.994206
706.400,0.994205
706.500,0.994210
706.600,0.994212
706.700,0.994212
706.800,0.994211
706.900,0.994211
707.000,0.994218
707.100,0.994217
707.200,0.994217
707.300,0.994216
707.400,0.994215
707.500,0.994223
707.600,0.994221
707.700,0.994220
707.800,0.994220
707.900,0.994221
708.000,0.994226
708.100,0.994225
708.200,0.994218
708.300,0.994218
708.400,0.994218
708.500,0.994217
708.600,0.994217
708.700,0.994215
708.800,0.994215
708.900,0.994215
709.000,0.994213
709.100,0.994206
709.200,0.994205
709.300,0.994205
709.400,0.994203
709.500,0.994203
709.600,0.994201
709.700,0.994201
709.800,0.994195
709.900,0.994193
710.000,0.994191
710.100,0.994184
710.200,0.994184
710.300,0.994182
710.400,0.994181
710.500,0.994173
710.600,0.994170
710.700,0.994172
710.800,0.994163
710.900,0.994161
711.000,0.994160
711.100,0.994154
711.200,0.994151
711.300,0.994150
711.400,0.994141
711.500,0.994139
711.600,0.994134
711.700,0.994125
711.800,0.994122
711.900,0.994115
712.000,0.994115
712.100,0.994106
712.200,0.994104
712.300,0.994095
712.400,0.994092
712.500,0.994087
712.600,0.994078
712.700,0.994076
712.800,0.994067
712.900,0.994066
713.000,0.994058
713.100,0.994049
713.200,0.994039
713.300,0.994038
713.400,0.994030
713.500,0.994021
713.600,0.994019
713.700,0.994009
713.800,0.994002
713.900,0.993994
714.000,0.993990
714.100,0.993980
714.200,0.993972
714.300,0.993965
714.400,0.993961
714.500,0.993952
714.600,0.993943
714.700,0.993932
714.800,0.993927
714.900,0.993917
715.000,0.993906
715.100,0.993904
715.200,0.993896
715.300,0.993886
715.400,0.993877
715.500,0.993867
715.600,0.993856
715.700,0.993850
715.800,0.993839
715.900,0.993835
716.000,0.993826
716.100,0.993818
716.200,0.993807
716.300,0.993798
716.400,0.993787
716.500,0.993770
716.600,0.993764
716.700,0.993753
716.800,0.993741
716.900,0.993732
717.000,0.993721
717.100,0.993713
717.200,0.993703
717.300,0.993692
717.400,0.993682
717.500,0.993673
717.600,0.993662
717.700,0.993652
717.800,0.993634
717.900,0.993623
718.000,0.993616
718.100,0.993604
718.200,0.993593
718.300,0.993583
718.400,0.993564
718.500,0.993556
718.600,0.993545
718.700,0.993533
718.800,0.993521
718.900,0.993508
719.000,0.993495
719.100,0.993483
719.200,0.993473
719.300,0.993461
719.400,0.993445
719.500,0.993434
719.600,0.993422
719.700,0.993403
719.800,0.993392
719.900,0.993383
720.000,0.993364
720.100,0.993352
720.200,0.993340
720.300,0.993330
720.400,0.993313
720.500,0.993300
720.600,0.993287
720.700,0.993269
720.800,0.993259
720.900,0.993246
721.000,0.993228
721.100,0.993215
721.200,0.993201
721.300,0.993187
721.400,0.993174
721.500,0.993153
721.600,0.993142
721.700,0.993132
721.800,0.993114
721.900,0.993100
722.000,0.993086
722.100,0.993067
722.200,0.993057
722.300,0.993036
722.400,0.993025
722.500,0.993011
722.600,0.992990
722.700,0.992981
722.800,0.992961
722.900,0.992946
723.000,0.992927
723.100,0.992917
723.200,0.992896
723.300,0.992884
723.400,0.992862
723.500,0.992847
723.600,0.992832
723.700,0.992817
723.800,0.992796
723.900,0.992783
724.000,0.992761
724.100,0.992743
724.200,0.992728
724.300,0.992707
724.400,0.992692
724.500,0.992669
724.600,0.992659
724.700,0.992636
724.800,0.992621
724.900,0.992598
725.000,0.992581
725.100,0.992565
725.200,0.992542
725.300,0.992526
725.400,0.992504
725.500,0.992492
725.600,0.992469
725.700,0.992447
725.800,0.992431
725.900,0.992408
726.000,0.992396
726.100,0.992373
726.200,0.992350
726.300,0.992333
726.400,0.992310
726.500,0.992291
726.600,0.992275
726.700,0.992251
726.800,0.992237
726.900,0.992218
727.000,0.992193
727.100,0.992177
727.200,0.992153
727.300,0.992136
727.400,0.992117
727.500,0.992093
727.600,0.992076
727.700,0.992052
727.800,0.992027
727.900,0.992015
728.000,0.991990
728.100,0.991972
728.200,0.991948
728.300,0.991923
728.400,0.991910
728.500,0.991886
728.600,0.991861
728.700,0.991842
728.800,0.991817
728.900,0.991804
729.000,0.991779
729.100,0.991754
729.200,0.991736
729.300,0.991715
729.400,0.991690
729.500,0.991671
729.600,0.991646
729.700,0.991627
729.800,0.991606
729.900,0.991580
730.000,0.991562
730.100,0.991535
730.200,0.991509
730.300,0.991495
730.400,0.991469
730.500,0.991450
730.600,0.991423
730.700,0.991397
730.800,0.991383
730.900,0.991356
731.000,0.991329
731.100,0.991309
731.200,0.991282
731.300,0.991261
731.400,0.991241
731.500,0.991214
731.600,0.991186
731.700,0.991166
731.800,0.991144
731.900,0.991125
732.000,0.991097
732.100,0.991069
732.200,0.991054
732.300,0.991028
732.400,0.991001
732.500,0.990981
732.600,0.990952
732.700,0.990930
732.800,0.990909
732.900,0.990881
733.000,0.990852
733.100,0.990831
733.200,0.990808
733.300,0.990779
733.400,0.990758
733.500,0.990729
733.600,0.990699
733.700,0.990684
733.800,0.990655
733.900,0.990626
734.000,0.990604
734.100,0.990575
734.200,0.990551
734.300,0.990529
734.400,0.990500
734.500,0.990469
734.600,0.990448
734.700,0.990424
734.800,0.990393
734.900,0.990371
735.000,0.990341
735.100,0.990310
735.200,0.990294
735.300,0.990263
735.400,0.990232
735.500,0.990210
735.600,0.990185
735.700,0.990154
735.800,0.990131
735.900,0.990100
736.000,0.990069
736.100,0.990051
736.200,0.990020
736.300,0.989988
736.400,0.989965
736.500,0.989933
736.600,0.989908
736.700,0.989884
736.800,0.989852
736.900,0.989820
737.000,0.989795
737.100,0.989770
737.200,0.989738
737.300,0.989713
737.400,0.989681
737.500,0.989648
737.600,0.989622
737.700,0.989597
737.800,0.989564
737.900,0.989534
738.000,0.989509
738.100,0.989483
738.200,0.989449
738.300,0.989424
738.400,0.989390
738.500,0.989356
738.600,0.989331
738.700,0.989304
738.800,0.989270
738.900,0.989236
739.000,0.989210
739.100,0.989183
739.200,0.989149
739.300,0.989122
739.400,0.989088
739.500,0.989053
739.600,0.989034
739.700,0.988998
739.800,0.988964
739.900,0.988928
740.000,0.988901
740.100,0.988873
740.200,0.988838
740.300,0.988811
740.400,0.988775
740.500,0.988739
740.600,0.988711
740.700,0.988684
740.800,0.988647
740.900,0.988611
741.000,0.988584
741.100,0.988555
741.200,0.988519
741.300,0.988481
741.400,0.988453
741.500,0.988416
741.600,0.988387
741.700,0.988359
741.800,0.988321
741.900,0.988284
742.000,0.988247
742.100,0.988226
742.200,0.988189
742.300,0.988150
742.400,0.988120
742.500,0.988083
742.600,0.988053
742.700,0.988015
742.800,0.987985
742.900,0.987947
743.000,0.987908
743.100,0.987886
743.200,0.987848
743.300,0.987809
743.400,0.987773
743.500,0.987742
743.600,0.987712
743.700,0.987673
743.800,0.987632
743.900,0.987602
744.000,0.987561
744.100,0.987531
744.200,0.987499
744.300,0.987459
744.400,0.987418
744.500,0.987378
744.600,0.987355
744.700,0.987314
744.800,0.987274
744.900,0.987232
745.000,0.987200
745.100,0.987169
745.200,0.987127
745.300,0.987086
745.400,0.987053
745.500,0.987012
745.600,0.986980
745.700,0.986936
745.800,0.986905
745.900,0.986862
746.000,0.986819
746.100,0.986787
746.200,0.986753
746.300,0.986709
746.400,0.986667
746.500,0.986627
746.600,0.986605
746.700,0.986560
746.800,0.986517
746.900,0.986473
747.000,0.986439
747.100,0.986405
747.200,0.986366
747.300,0.986321
747.400,0.986286
747.500,0.986241
747.600,0.986208
747.700,0.986162
747.800,0.986132
747.900,0.986087
748.000,0.986041
748.100,0.986007
748.200,0.985972
748.300,0.985926
748.400,0.985879
748.500,0.985838
748.600,0.985812
748.700,0.985767
748.800,0.985721
748.900,0.985674
749.000,0.985637
749.100,0.985601
749.200,0.985559
749.300,0.985511
749.400,0.985465
749.500,0.985426
749.600,0.985391
749.700,0.985344
749.800,0.985300
749.900,0.985261
750.000,0.985213
750.100,0.985177
750.200,0.985128
750.300,0.985090
750.400,0.985041
750.500,0.984996
750.600,0.984960
750.700,0.984911
750.800,0.984872
750.900,0.984822
751.000,0.984773
751.100,0.984723
751.200,0.984700
751.300,0.984650
751.400,0.984600
751.500,0.984550
751.600,0.984498
751.700,0.984471
751.800,0.984424
751.900,0.984373
752.000,0.984322
752.100,0.984281
752.200,0.984242
752.300,0.984190
752.400,0.984138
752.500,0.984091
752.600,0.984049
752.700,0.984010
752.800,0.983957
752.900,0.983905
753.000,0.983853
753.100,0.983810
753.200,0.983775
753.300,0.983722
753.400,0.983668
753.500,0.983625
753.600,0.983572
753.700,0.983531
753.800,0.983482
753.900,0.983427
754.000,0.983383
754.100,0.983328
754.200,0.983287
754.300,0.983233
754.400,0.983177
754.500,0.983139
754.600,0.983083
754.700,0.983026
754.800,0.982985
754.900,0.982928
755.000,0.982885
755.100,0.982827
755.200,0.982776
755.300,0.982733
755.400,0.982677
755.500,0.982630
755.600,0.982572
755.700,0.982515
755.800,0.982477
755.900,0.982419
756.000,0.982362
756.100,0.982314
756.200,0.982256
756.300,0.982212
756.400,0.982154
756.500,0.982100
756.600,0.982051
756.700,0.981992
756.800,0.981948
756.900,0.981888
757.000,0.981829
757.100,0.981780
757.200,0.981724
757.300,0.981678
757.400,0.981619
757.500,0.981558
757.600,0.981497
757.700,0.981448
757.800,0.981390
757.900,0.981344
758.000,0.981284
758.100,0.981222
758.200,0.981170
758.300,0.981107
758.400,0.981062
758.500,0.981005
758.600,0.980941
758.700,0.980879
758.800,0.980827
758.900,0.980778
759.000,0.980715
759.100,0.980651
759.200,0.980593
759.300,0.980527
759.400,0.980492
759.500,0.980428
759.600,0.980361
759.700,0.980297
759.800,0.980237
759.900,0.980172
760.000,0.980135
760.100,0.980069
760.200,0.980003
760.300,0.979935
760.400,0.979867
760.500,0.979824
760.600,0.979769
760.700,0.979700
760.800,0.979635
760.900,0.979566
761.000,0.979516
761.100,0.979449
761.200,0.979397
761.300,0.979329
761.400,0.979258
761.500,0.979208
761.600,0.979140
761.700,0.979068
761.800,0.979017
761.900,0.978946
762.000,0.978876
762.100,0.978824
762.200,0.978752
762.300,0.978683
762.400,0.978609
762.500,0.978556
762.600,0.978505
762.700,0.978434
762.800,0.978360
762.900,0.978287
763.000,0.978214
763.100,0.978175
763.200,0.978106
763.300,0.978033
763.400,0.977960
763.500,0.977884
763.600,0.977831
763.700,0.977757
763.800,0.977700
763.900,0.977625
764.000,0.977550
764.100,0.977477
764.200,0.977419
764.300,0.977345
764.400,0.977269
764.500,0.977210
764.600,0.977134
764.700,0.977078
764.800,0.977003
764.900,0.976924
765.000,0.976847
765.100,0.976768
765.200,0.976731
765.300,0.976652
765.400,0.976575
765.500,0.976496
765.600,0.976415
765.700,0.976335
765.800,0.976286
765.900,0.976217
766.000,0.976138
766.100,0.976055
766.200,0.975976
766.300,0.975916
766.400,0.975834
766.500,0.975760
766.600,0.975676
766.700,0.975608
766.800,0.975547
766.900,0.975465
767.000,0.975380
767.100,0.975298
767.200,0.975222
767.300,0.975137
767.400,0.975076
767.500,0.975005
767.600,0.974921
767.700,0.974834
767.800,0.974756
767.900,0.974696
768.000,0.974610
768.100,0.974522
768.200,0.974437
768.300,0.974364
768.400,0.974300
768.500,0.974220
768.600,0.974133
768.700,0.974044
768.800,0.973953
768.900,0.973865
769.000,0.973803
769.100,0.973713
769.200,0.973645
769.300,0.973556
769.400,0.973462
769.500,0.973399
769.600,0.973309
769.700,0.973218
769.800,0.973133
769.900,0.973039
770.000,0.972975
770.100,0.972896
770.200,0.972803
770.300,0.972711
770.400,0.972617
770.500,0.972530
770.600,0.972464
770.700,0.972372
770.800,0.972276
770.900,0.972178
771.000,0.972098
771.100,0.972031
771.200,0.971941
771.300,0.971845
771.400,0.971748
771.500,0.971649
771.600,0.971554
771.700,0.971485
771.800,0.971395
771.900,0.971295
772.000,0.971211
772.100,0.971114
772.200,0.971043
772.300,0.970943
772.400,0.970844
772.500,0.970751
772.600,0.970648
772.700,0.970577
772.800,0.970478
772.900,0.970374
773.000,0.970289
773.100,0.970186
773.200,0.970090
773.300,0.970016
773.400,0.969911
773.500,0.969809
773.600,0.969704
773.700,0.969599
773.800,0.969533
773.900,0.969427
774.000,0.969321
774.100,0.969232
774.200,0.969124
774.300,0.969023
774.400,0.968947
774.500,0.968841
774.600,0.968732
774.700,0.968631
774.800,0.968521
774.900,0.968442
775.000,0.968336
775.100,0.968233
775.200,0.968122
775.300,0.968026
775.400,0.967924
775.500,0.967846
775.600,0.967733
775.700,0.967622
775.800,0.967516
775.900,0.967399
776.000,0.967322
776.100,0.967209
776.200,0.967099
776.300,0.966985
776.400,0.966871
776.500,0.966812
776.600,0.966698
776.700,0.966581
776.800,0.966466
776.900,0.966353
777.000,0.966239
777.100,0.966155
777.200,0.966032
777.300,0.965926
777.400,0.965804
777.500,0.965683
777.600,0.965609
777.700,0.965489
777.800,0.965366
777.900,0.965242
778.000,0.965147
778.100,0.965022
778.200,0.964938
778.300,0.964816
778.400,0.964701
778.500,0.964575
778.600,0.964449
778.700,0.964374
778.800,0.964246
778.900,0.964120
779.000,0.963994
779.100,0.963873
779.200,0.963746
779.300,0.963658
779.400,0.963527
779.500,0.963425
779.600,0.963296
779.700,0.963166
779.800,0.963084
779.900,0.962953
780.000,0.962821
780.100,0.962686
780.200,0.962566
780.300,0.962433
780.400,0.962340
780.500,0.962208
780.600,0.962080
780.700,0.961945
780.800,0.961806
780.900,0.961727
781.000,0.961587
781.100,0.961449
781.200,0.961311
781.300,0.961202
781.400,0.961062
781.500,0.960968
781.600,0.960830
781.700,0.960697
781.800,0.960559
781.900,0.960413
782.000,0.960281
782.100,0.960188
782.200,0.960045
782.300,0.959901
782.400,0.959766
782.500,0.959620
782.600,0.959522
782.700,0.959376
782.800,0.959242
782.900,0.959092
783.000,0.958946
783.100,0.958804
783.200,0.958707
783.300,0.958557
783.400,0.958406
783.500,0.958269
783.600,0.958117
783.700,0.958034
783.800,0.957884
783.900,0.957742
784.000,0.957583
784.100,0.957431
784.200,0.957287
784.300,0.957182
784.400,0.957028
784.500,0.956871
784.600,0.956724
784.700,0.956568
784.800,0.956458
784.900,0.956301
785.000,0.956155
785.100,0.955997
785.200,0.955832
785.300,0.955683
785.400,0.955577
785.500,0.955410
785.600,0.955248
785.700,0.955098
785.800,0.954932
785.900,0.954765
786.000,0.954656
786.100,0.954499
786.200,0.954330
786.300,0.954164
786.400,0.954010
786.500,0.953899
786.600,0.953728
786.700,0.953559
786.800,0.953418
786.900,0.953248
787.000,0.953077
787.100,0.952956
787.200,0.952796
787.300,0.952623
787.400,0.952445
787.500,0.952279
787.600,0.952163
787.700,0.951984
787.800,0.951811
787.900,0.951642
788.000,0.951460
788.100,0.951281
788.200,0.951163
788.300,0.950994
788.400,0.950814
788.500,0.950632
788.600,0.950457
788.700,0.950269
788.800,0.950148
788.900,0.949968
789.000,0.949791
789.100,0.949604
789.200,0.949412
789.300,0.949285
789.400,0.949113
789.500,0.948923
789.600,0.948728
789.700,0.948555
789.800,0.948362
789.900,0.948235
790.000,0.948038
790.100,0.947856
790.200,0.947660
790.300,0.947465
790.400,0.947267
790.500,0.947151
790.600,0.946953
790.700,0.946753
790.800,0.946565
790.900,0.946364
791.000,0.946228
791.100,0.946030
791.200,0.945834
791.300,0.945635
791.400,0.945428
791.500,0.945221
791.600,0.945101
791.700,0.944892
791.800,0.944687
791.900,0.944486
792.000,0.944280
792.100,0.944067
792.200,0.943930
792.300,0.943729
792.400,0.943514
792.500,0.943299
792.600,0.943081
792.700,0.942960
792.800,0.942742
792.900,0.942522
793.000,0.942321
793.100,0.942099
793.200,0.941877
793.300,0.941732
793.400,0.941528
793.500,0.941297
793.600,0.941076
793.700,0.940848
793.800,0.940635
793.900,0.940486
794.000,0.940261
794.100,0.940039
794.200,0.939812
794.300,0.939584
794.400,0.939428
794.500,0.939213
794.600,0.938976
794.700,0.938739
794.800,0.938511
794.900,0.938285
795.000,0.938137
795.100,0.937896
795.200,0.937667
795.300,0.937429
795.400,0.937185
795.500,0.936937
795.600,0.936800
795.700,0.936553
795.800,0.936302
795.900,0.936063
796.000,0.935828
796.100,0.935665
796.200,0.935417
796.300,0.935179
796.400,0.934929
796.500,0.934670
796.600,0.934418
796.700,0.934274
796.800,0.934013
796.900,0.933757
797.000,0.933494
797.100,0.933252
797.200,0.932985
797.300,0.932816
797.400,0.932577
797.500,0.932314
797.600,0.932036
797.700,0.931771
797.800,0.931521
797.900,0.931353
798.000,0.931077
798.100,0.930807
798.200,0.930552
798.300,0.930273
798.400,0.930094
798.500,0.929842
798.600,0.929560
798.700,0.929282
798.800,0.928995
798.900,0.928726
799.000,0.928556
799.100,0.928273
799.200,0.927983
799.300,0.927715
799.400,0.927435
799.500,0.927140
799.600,0.926977
799.700,0.926678
799.800,0.926393
799.900,0.926093
800.000,0.925816
800.100,0.925519
800.200,0.925334
800.300,0.925035
800.400,0.924753
800.500,0.924445
800.600,0.924148
800.700,0.923862
800.800,0.923665
800.900,0.923358
801.000,0.923056
801.100,0.922757
801.200,0.922445
801.300,0.922251
801.400,0.921944
801.500,0.921639
801.600,0.921322
801.700,0.921010
801.800,0.920701
801.900,0.920501
802.000,0.920178
802.100,0.919853
802.200,0.919545
802.300,0.919217
802.400,0.918887
802.500,0.918682
802.600,0.918369
802.700,0.918034
802.800,0.917698
802.900,0.917380
803.000,0.917048
803.100,0.916830
803.200,0.916496
803.300,0.916171
803.400,0.915818
803.500,0.915478
803.600,0.915128
803.700,0.914925
803.800,0.914580
803.900,0.914226
804.000,0.913880
804.100,0.913522
804.200,0.913302
804.300,0.912949
804.400,0.912558
804.500,0.912201
804.600,0.911835
804.700,0.911466
804.800,0.911250
804.900,0.910879
805.000,0.910514
805.100,0.910138
805.200,0.909752
805.300,0.909381
805.400,0.909159
805.500,0.908764
805.600,0.908371
805.700,0.907993
805.800,0.907604
805.900,0.907233
806.000,0.906985
806.100,0.906599
806.200,0.906203
806.300,0.905796
806.400,0.905416
806.500,0.905013
806.600,0.904754
806.700,0.904339
806.800,0.903952
806.900,0.903541
807.000,0.903138
807.100,0.902714
807.200,0.902482
807.300,0.902064
807.400,0.901652
807.500,0.901232
807.600,0.900794
807.700,0.900367
807.800,0.900129
807.900,0.899688
808.000,0.899264
808.100,0.898841
808.200,0.898412
808.300,0.897962
808.400,0.897717
808.500,0.897273
808.600,0.896839
808.700,0.896377
808.800,0.895925
808.900,0.895675
809.000,0.895209
809.100,0.894775
809.200,0.894314
809.300,0.893861
809.400,0.893399
809.500,0.893128
809.600,0.892683
809.700,0.892211
809.800,0.891712
809.900,0.891248
810.000,0.890779
810.100,0.890489
810.200,0.890019
810.300,0.889532
810.400,0.889068
810.500,0.888587
810.600,0.888081
810.700,0.887808
810.800,0.887309
810.900,0.886793
811.000,0.886303
811.100,0.885795
811.200,0.885311
811.300,0.884993
811.400,0.884489
811.500,0.883987
811.600,0.883478
811.700,0.882969
811.800,0.882458
811.900,0.882154
812.000,0.881625
812.100,0.881078
812.200,0.880569
812.300,0.880041
812.400,0.879514
812.500,0.879205
812.600,0.878669
812.700,0.878134
812.800,0.877593
812.900,0.877052
813.000,0.876464
813.100,0.876159
813.200,0.875607
813.300,0.875042
813.400,0.874500
813.500,0.873938
813.600,0.873363
813.700,0.873032
813.800,0.872479
813.900,0.871905
814.000,0.871319
814.100,0.870729
814.200,0.870145
814.300,0.869808
814.400,0.869206
814.500,0.868632
814.600,0.868022
814.700,0.867442
814.800,0.866844
814.900,0.866492
815.000,0.865889
815.100,0.865297
815.200,0.864639
815.300,0.864040
815.400,0.863422
815.500,0.863061
815.600,0.862437
815.700,0.861807
815.800,0.861176
815.900,0.860542
816.000,0.859901
816.100,0.859548
816.200,0.858905
816.300,0.858208
816.400,0.857573
816.500,0.856934
816.600,0.856255
816.700,0.855876
816.800,0.855227
816.900,0.854575
817.000,0.853883
817.100,0.853206
817.200,0.852543
817.300,0.852147
817.400,0.851447
817.500,0.850740
817.600,0.850063
817.700,0.849360
817.800,0.848674
817.900,0.848255
818.000,0.847563
818.100,0.846845
818.200,0.846128
818.300,0.845424
818.400,0.844716
818.500,0.844269
818.600,0.843514
818.700,0.842795
818.800,0.842072
818.900,0.841345
819.000,0.840595
819.100,0.840168
819.200,0.839406
819.300,0.838663
819.400,0.837898
819.500,0.837113
819.600,0.836357
819.700,0.835911
819.800,0.835130
819.900,0.834343
820.000,0.833571
820.100,0.832794
820.200,0.831994
820.300,0.831534
820.400,0.830746
820.500,0.829933
820.600,0.829101
820.700,0.828278
820.800,0.827471
820.900,0.826977
821.000,0.826162
821.100,0.825342
821.200,0.824517
821.300,0.823666
821.400,0.822831
821.500,0.822370
821.600,0.821527
821.700,0.820603
821.800,0.819750
821.900,0.818892
822.000,0.818029
822.100,0.817532
822.200,0.816661
822.300,0.815784
822.400,0.814903
822.500,0.813994
822.600,0.813074
822.700,0.812583
822.800,0.811646
822.900,0.810718
823.000,0.809806
823.100,0.808866
823.200,0.807921
823.300,0.807415
823.400,0.806483
823.500,0.805546
823.600,0.804580
823.700,0.803632
823.800,0.802678
823.900,0.801681
824.000,0.801132
824.100,0.800163
824.200,0.799188
824.300,0.798207
824.400,0.797196
824.500,0.796203
824.600,0.795662
824.700,0.794659
824.800,0.793626
824.900,0.792573
825.000,0.791553
825.100,0.790526
825.200,0.789975
825.300,0.788938
825.400,0.787896
825.500,0.786820
825.600,0.785765
825.700,0.784703
825.800,0.784127
825.900,0.783028
826.000,0.781910
826.100,0.780824
826.200,0.779732
826.300,0.778606
826.400,0.778040
826.500,0.776931
826.600,0.775850
826.700,0.774700
826.800,0.773570
826.900,0.772434
827.000,0.771821
827.100,0.770605
827.200,0.769450
827.300,0.768289
827.400,0.767120
827.500,0.765914
827.600,0.765321
827.700,0.764134
827.800,0.762898
827.900,0.761696
828.000,0.760514
828.100,0.759298
828.200,0.758646
828.300,0.757377
828.400,0.756141
828.500,0.754896
828.600,0.753645
828.700,0.752387
828.800,0.751078
828.900,0.750402
829.000,0.749122
829.100,0.747868
829.200,0.746531
829.300,0.745230
829.400,0.743919
829.500,0.743179
829.600,0.741899
829.700,0.740525
829.800,0.739187
829.900,0.737840
830.000,0.736440
830.100,0.735800
830.200,0.734388
830.300,0.733012
830.400,0.731627
830.500,0.730189
830.600,0.728832
830.700,0.728047
830.800,0.726631
830.900,0.725254
831.000,0.723776
831.100,0.722335
831.200,0.720886
831.300,0.720159
831.400,0.718695
831.500,0.717225
831.600,0.715743
831.700,0.714207
831.800,0.712755
831.900,0.712005
832.000,0.710446
832.100,0.708972
832.200,0.707394
832.300,0.705852
832.400,0.704344
832.500,0.702783
832.600,0.701966
832.700,0.700396
832.800,0.698811
832.900,0.697170
833.000,0.695659
833.100,0.694045
833.200,0.693156
833.300,0.691581
833.400,0.689895
833.500,0.688288
833.600,0.686630
833.700,0.684968
833.800,0.684100
833.900,0.682467
834.000,0.680773
834.100,0.679069
834.200,0.677362
834.300,0.675681
834.400,0.674740
834.500,0.673056
834.600,0.671305
834.700,0.669598
834.800,0.667826
834.900,0.665995
835.000,0.664260
835.100,0.663380
835.200,0.661581
835.300,0.659761
835.400,0.657882
835.500,0.656147
835.600,0.654245
835.700,0.653352
835.800,0.651483
835.900,0.649664
836.000,0.647772
836.100,0.645883
836.200,0.643969
836.300,0.643099
836.400,0.641120
836.500,0.639242
836.600,0.637289
836.700,0.635325
836.800,0.633413
836.900,0.632355
837.000,0.630427
837.100,0.628372
837.200,0.626473
837.300,0.624511
837.400,0.622422
837.500,0.620437
837.600,0.619396
837.700,0.617395
837.800,0.615314
837.900,0.613294
838.000,0.611189
838.100,0.609091
838.200,0.608072
838.300,0.606008
838.400,0.603811
838.500,0.601779
838.600,0.599558
838.700,0.597447
838.800,0.596350
838.900,0.594221
839.000,0.592007
839.100,0.589862
839.200,0.587624
839.300,0.585398
839.400,0.584323
839.500,0.582129
839.600,0.579797
839.700,0.577638
839.800,0.575282
839.900,0.573100
840.000,0.570769
840.100,0.569627
840.200,0.567415
840.300,0.565004
840.400,0.562769
840.500,0.560461
840.600,0.558011
840.700,0.556954
840.800,0.554486
840.900,0.552198
841.000,0.549835
841.100,0.547330
841.200,0.545006
841.300,0.543809
841.400,0.541387
841.500,0.538920
841.600,0.536491
841.700,0.534031
841.800,0.531528
841.900,0.529043
842.000,0.527814
842.100,0.525330
842.200,0.522815
842.300,0.520258
842.400,0.517805
842.500,0.515136
842.600,0.513930
842.700,0.511448
842.800,0.508749
842.900,0.506243
843.000,0.503452
843.100,0.500922
843.200,0.499689
843.300,0.496934
843.400,0.494376
843.500,0.491687
843.600,0.489015
843.700,0.486350
843.800,0.483698
843.900,0.482434
844.000,0.479673
844.100,0.476968
844.200,0.474250
844.300,0.471454
844.400,0.468714
844.500,0.467453
844.600,0.464601
844.700,0.461861
844.800,0.459081
844.900,0.456366
845.000,0.453421
845.100,0.452185
845.200,0.449321
845.300,0.446568
845.400,0.443630
845.500,0.440811
845.600,0.437948
845.700,0.435109
845.800,0.433671
845.900,0.430861
846.000,0.427919
846.100,0.425089
846.200,0.422025
846.300,0.419175
846.400,0.417816
846.500,0.414909
846.600,0.411956
846.700,0.409031
846.800,0.406036
846.900,0.403054
847.000,0.400101
847.100,0.398721
847.200,0.395756
847.300,0.392743
847.400,0.389698
847.500,0.386625
847.600,0.383668
847.700,0.382231
847.800,0.379263
847.900,0.376163
848.000,0.373072
848.100,0.369996
848.200,0.366958
848.300,0.365548
848.400,0.362500
848.500,0.359376
848.600,0.356267
848.700,0.353200
848.800,0.350078
848.900,0.346998
849.000,0.345575
849.100,0.342415
849.200,0.339155
849.300,0.336093
849.400,0.332989
849.500,0.329830
849.600,0.328487
849.700,0.325286
849.800,0.322092
849.900,0.318970
850.000,0.315791
850.100,0.312695
850.200,0.309475
850.300,0.308128
850.400,0.304992
850.500,0.301798
850.600,0.298577
850.700,0.295347
850.800,0.292233
850.900,0.290857
851.000,0.287653
851.100,0.284507
851.200,0.281389
851.300,0.278182
851.400,0.275034
851.500,0.273605
851.600,0.270459
851.700,0.267340
851.800,0.264133
851.900,0.260878
852.000,0.257673
852.100,0.254534
852.200,0.253203
852.300,0.249979
852.400,0.246871
852.500,0.243741
852.600,0.240551
852.700,0.237429
852.800,0.236024
852.900,0.232909
853.000,0.229821
853.100,0.226547
853.200,0.223449
853.300,0.220376
853.400,0.217202
853.500,0.215907
853.600,0.212831
853.700,0.209584
853.800,0.206523
853.900,0.203487
854.000,0.200357
854.100,0.199071
854.200,0.196056
854.300,0.192950
854.400,0.189954
854.500,0.186953
854.600,0.183892
854.700,0.180943
854.800,0.179707
854.900,0.176662
855.000,0.173713
855.100,0.170788
855.200,0.167783
855.300,0.164883
855.400,0.163672
855.500,0.160792
855.600,0.157837
855.700,0.154986
855.800,0.152142
855.900,0.149417
856.000,0.146531
856.100,0.145371
856.200,0.142589
856.300,0.139741
856.400,0.136922
856.500,0.134189
856.600,0.131476
856.700,0.130290
856.800,0.127605
856.900,0.124941
857.000,0.122295
857.100,0.119691
857.200,0.117087
857.300,0.114504
857.400,0.113383
857.500,0.110833
857.600,0.108304
857.700,0.105800
857.800,0.103245
857.900,0.100789
858.000,0.099734
858.100,0.097314
858.200,0.094845
858.300,0.092475
858.400,0.090132
858.500,0.087809
858.600,0.085536
858.700,0.084617
858.800,0.082365
858.900,0.080134
859.000,0.077874
859.100,0.075699
859.200,0.073561
859.300,0.072718
859.400,0.070689
859.500,0.068562
859.600,0.066516
859.700,0.064458
859.800,0.062546
859.900,0.060546
860.000,0.059777
860.100,0.057880
860.200,0.056015
860.300,0.054236
860.400,0.052384
860.500,0.050604
860.600,0.049923
860.700,0.048190
860.800,0.046567
860.900,0.044852
861.000,0.043236
861.100,0.041656
861.200,0.040094
861.300,0.039469
861.400,0.037970
861.500,0.036511
861.600,0.035072
861.700,0.033686
861.800,0.032320
861.900,0.031018
862.000,0.030529
862.100,0.029251
862.200,0.028029
862.300,0.026826
862.400,0.025723
862.500,0.024562
862.600,0.024156
862.700,0.023083
862.800,0.022067
862.900,0.021127
863.000,0.020145
863.100,0.019220
863.200,0.018342
863.300,0.018037
863.400,0.017243
863.500,0.016478
863.600,0.015733
863.700,0.015027
863.800,0.014407
863.900,0.014166
864.000,0.013576
864.100,0.013006
864.200,0.012515
864.300,0.012024
864.400,0.011593
864.500,0.011171
864.600,0.011057
864.700,0.010723
864.800,0.010409
864.900,0.010157
865.000,0.009932
865.100,0.009759
865.200,0.009605
865.300,0.009579
865.400,0.009506
865.500,0.009448
865.600,0.009450
865.700,0.009471
865.800,0.009553
865.900,0.009591
866.000,0.009723
866.100,0.009882
866.200,0.010097
866.300,0.010351
866.400,0.010625
866.500,0.010958
866.600,0.011079
866.700,0.011464
866.800,0.011868
866.900,0.012315
867.000,0.012795
867.100,0.013334
867.200,0.013541
867.300,0.014111
867.400,0.014716
867.500,0.015361
867.600,0.016081
867.700,0.016776
867.800,0.017550
867.900,0.017867
868.000,0.018663
868.100,0.019523
868.200,0.020371
868.300,0.021302
868.400,0.022253
868.500,0.023219
868.600,0.023594
868.700,0.024643
868.800,0.025671
868.900,0.026787
869.000,0.027895
869.100,0.029064
869.200,0.029517
869.300,0.030686
869.400,0.031982
869.500,0.033215
869.600,0.034576
869.700,0.035921
869.800,0.037258
869.900,0.037780
870.000,0.039146
870.100,0.040605
870.200,0.042084
870.300,0.043548
870.400,0.045087
870.500,0.046606
870.600,0.047181
870.700,0.048736
870.800,0.050378
870.900,0.051980
871.000,0.053677
871.100,0.055331
871.200,0.056008
871.300,0.057763
871.400,0.059483
871.500,0.061290
871.600,0.063059
871.700,0.064921
871.800,0.066734
871.900,0.067413
872.000,0.069257
872.100,0.071198
872.200,0.073160
872.300,0.075074
872.400,0.077083
872.500,0.079039
872.600,0.079761
872.700,0.081744
872.800,0.083825
872.900,0.085906
873.000,0.088028
873.100,0.090173
873.200,0.090845
873.300,0.093015
873.400,0.095120
873.500,0.097325
873.600,0.099469
873.700,0.101709
873.800,0.103888
873.900,0.104672
874.000,0.106873
874.100,0.109169
874.200,0.111326
874.300,0.113661
874.400,0.115916
874.500,0.118256
874.600,0.119065
874.700,0.121361
874.800,0.123752
874.900,0.126076
875.000,0.128493
875.100,0.130832
875.200,0.133286
875.300,0.134022
875.400,0.136400
875.500,0.138869
875.600,0.141270
875.700,0.143763
875.800,0.146186
875.900,0.147024
876.000,0.149370
876.100,0.151816
876.200,0.154418
876.300,0.156883
876.400,0.159436
876.500,0.161918
876.600,0.162766
876.700,0.165258
876.800,0.167740
876.900,0.170327
877.000,0.172842
877.100,0.175443
877.200,0.177971
877.300,0.178746
877.400,0.181282
877.500,0.183803
877.600,0.186451
877.700,0.188982
877.800,0.191688
877.900,0.194251
878.000,0.195005
878.100,0.197673
878.200,0.200222
878.300,0.202900
878.400,0.205456
878.500,0.207959
878.600,0.208809
878.700,0.211397
878.800,0.213960
878.900,0.216655
879.000,0.219250
879.100,0.221820
879.200,0.224520
879.300,0.225210
879.400,0.227884
879.500,0.230486
879.600,0.233089
879.700,0.235766
879.800,0.238371
879.900,0.240976
880.000,0.241841
880.100,0.244335
880.200,0.247042
880.300,0.249647
880.400,0.252220
880.500,0.254925
880.600,0.257528
880.700,0.258178
880.800,0.260800
880.900,0.263400
881.000,0.266067
881.100,0.268664
881.200,0.271258
881.300,0.272069
881.400,0.274580
881.500,0.277169
881.600,0.279721
881.700,0.282407
881.800,0.284989
881.900,0.287532
882.000,0.288261
882.100,0.290856
882.200,0.293391
882.300,0.295958
882.400,0.298624
882.500,0.301147
882.600,0.303624
882.700,0.304338
882.800,0.306990
882.900,0.309498
883.000,0.312041
883.100,0.314679
883.200,0.317095
883.300,0.319624
883.400,0.320422
883.500,0.322904
883.600,0.325422
883.700,0.327955
883.800,0.330422
883.900,0.332925
884.000,0.335422
884.100,0.336159
884.200,0.338571
884.300,0.341055
884.400,0.343589
884.500,0.346062
884.600,0.348528
884.700,0.350869
884.800,0.351562
884.900,0.354014
885.000,0.356418
885.100,0.358782
885.200,0.361312
885.300,0.363697
885.400,0.364341
885.500,0.366760
885.600,0.369097
885.700,0.371554
885.800,0.373953
885.900,0.376345
886.000,0.378612
886.100,0.379331
886.200,0.381707
886.300,0.384032
886.400,0.386320
886.500,0.388769
886.600,0.391071
886.700,0.393412
886.800,0.393943
886.900,0.396322
887.000,0.398646
887.100,0.400962
887.200,0.403153
887.300,0.405547
887.400,0.407841
887.500,0.408379
887.600,0.410591
887.700,0.412868
887.800,0.415181
887.900,0.417443
888.000,0.419626
888.100,0.421825
888.200,0.422389
888.300,0.424714
888.400,0.426872
888.500,0.429046
888.600,0.431258
888.700,0.433463
888.800,0.435544
888.900,0.436116
889.000,0.438303
889.100,0.440434
889.200,0.442537
889.300,0.444700
889.400,0.446808
889.500,0.449040
889.600,0.449496
889.700,0.451585
889.800,0.453713
889.900,0.455767
890.000,0.457832
890.100,0.460021
890.200,0.460526
890.300,0.462506
890.400,0.464592
890.500,0.466671
890.600,0.468627
890.700,0.470771
890.800,0.472825
890.900,0.473197
891.000,0.475241
891.100,0.477277
891.200,0.479240
891.300,0.481211
891.400,0.483222
891.500,0.485226
891.600,0.485659
891.700,0.487652
891.800,0.489637
891.900,0.491502
892.000,0.493471
892.100,0.495432
892.200,0.497274
892.300,0.497720
892.400,0.499663
892.500,0.501487
892.600,0.503414
892.700,0.505333
892.800,0.507210
892.900,0.509113
893.000,0.509490
893.100,0.511274
893.200,0.513159
893.300,0.515035
893.400,0.516796
893.500,0.518657
893.600,0.520510
893.700,0.520861
893.800,0.522655
893.900,0.524490
894.000,0.526260
894.100,0.528104
894.200,0.529858
894.300,0.531662
894.400,0.532004
894.500,0.533741
894.600,0.535528
894.700,0.537258
894.800,0.538972
894.900,0.540735
895.000,0.542442
895.100,0.542831
895.200,0.544577
895.300,0.546266
895.400,0.547942
895.500,0.549665
895.600,0.551331
895.700,0.552985
895.800,0.553342
895.900,0.554992
896.000,0.556629
896.100,0.558312
896.200,0.559886
896.300,0.561555
896.400,0.563216
896.500,0.563504
896.600,0.565108
896.700,0.566700
896.800,0.568337
896.900,0.569919
897.000,0.571490
897.100,0.573064
897.200,0.573288
897.300,0.574895
897.400,0.576495
897.500,0.577989
897.600,0.579574
897.700,0.581102
897.800,0.582625
897.900,0.582935
898.000,0.584447
898.100,0.585955
898.200,0.587454
898.300,0.588933
898.400,0.590420
898.500,0.591899
898.600,0.592193
898.700,0.593616
898.800,0.595129
898.900,0.596586
899.000,0.598038
899.100,0.599530
899.200,0.600967
899.300,0.601247
899.400,0.602630
899.500,0.604100
899.600,0.605564
899.700,0.606927
899.800,0.608377
899.900,0.609774
900.000,0.609994
900.100,0.611383
900.200,0.612813
900.300,0.614189
900.400,0.615559
900.500,0.616969
900.600,0.618280
900.700,0.618533
900.800,0.619884
900.900,0.621227
901.000,0.622565
901.100,0.623941
901.200,0.625230
901.300,0.626495
901.400,0.626734
901.500,0.628001
901.600,0.629352
901.700,0.630653
901.800,0.631946
901.900,0.633235
902.000,0.634561
902.100,0.634746
902.200,0.636019
902.300,0.637332
902.400,0.638596
902.500,0.639852
902.600,0.641052
902.700,0.642341
902.800,0.642469
902.900,0.643752
903.000,0.644986
903.100,0.646212
903.200,0.647436
903.300,0.648694
903.400,0.649862
903.500,0.650034
903.600,0.651189
903.700,0.652385
903.800,0.653580
903.900,0.654778
904.000,0.655918
904.100,0.657137
904.200,0.657290
904.300,0.658471
904.400,0.659545
904.500,0.660746
904.600,0.661942
904.700,0.663050
904.800,0.664204
904.900,0.664347
905.000,0.665482
905.100,0.666569
905.200,0.667707
905.300,0.668789
905.400,0.669947
905.500,0.671061
905.600,0.671190
905.700,0.672269
905.800,0.673326
905.900,0.674420
906.000,0.675514
906.100,0.676611
906.200,0.677652
906.300,0.677814
906.400,0.678892
906.500,0.679974
906.600,0.680955
906.700,0.682055
906.800,0.683114
906.900,0.684162
907.000,0.684251
907.100,0.685335
907.200,0.686338
907.300,0.687412
907.400,0.688376
907.500,0.689400
907.600,0.690425
907.700,0.690568
907.800,0.691547
907.900,0.692570
908.000,0.693582
908.100,0.694504
908.200,0.695541
908.300,0.696512
908.400,0.696646
908.500,0.697598
908.600,0.698578
908.700,0.699536
908.800,0.700508
908.900,0.701483
909.000,0.702487
909.100,0.702498
909.200,0.703438
909.300,0.704433
909.400,0.705350
909.500,0.706336
909.600,0.707219
909.700,0.708156
909.800,0.709097
909.900,0.709182
910.000,0.710070
910.100,0.710977
910.200,0.711937
910.300,0.712821
910.400,0.713732
910.500,0.714624
910.600,0.714733
910.700,0.715604
910.800,0.716473
910.900,0.717383
911.000,0.718243
911.100,0.719169
911.200,0.720022
911.300,0.720084
911.400,0.720948
911.500,0.721831
911.600,0.722664
911.700,0.723540
911.800,0.724418
911.900,0.725248
912.000,0.725312
912.100,0.726168
912.200,0.726989
912.300,0.727853
912.400,0.728705
912.500,0.729583
912.600,0.730353
912.700,0.730389
912.800,0.731259
912.900,0.732059
913.000,0.732885
913.100,0.733694
913.200,0.734483
913.300,0.735298
913.400,0.735350
913.500,0.736132
913.600,0.736919
913.700,0.737732
913.800,0.738531
913.900,0.739301
914.000,0.740082
914.100,0.740119
914.200,0.740883
914.300,0.741705
914.400,0.742459
914.500,0.743226
914.600,0.744004
914.700,0.744785
914.800,0.744816
914.900,0.745573
915.000,0.746314
915.100,0.747075
915.200,0.747843
915.300,0.748555
915.400,0.749306
915.500,0.750064
915.600,0.750125
915.700,0.750811
915.800,0.751543
915.900,0.752316
916.000,0.752993
916.100,0.753735
916.200,0.754480
916.300,0.754443
916.400,0.755204
916.500,0.755936
916.600,0.756646
916.700,0.757331
916.800,0.758054
916.900,0.758774
917.000,0.758757
917.100,0.759456
917.200,0.760170
917.300,0.760839
917.400,0.761547
917.500,0.762234
917.600,0.762896
917.700,0.762916
917.800,0.763584
917.900,0.764270
918.000,0.764946
918.100,0.765606
918.200,0.766283
918.300,0.766968
918.400,0.766936
918.500,0.767607
918.600,0.768257
918.700,0.768933
918.800,0.769612
918.900,0.770220
919.000,0.770888
919.100,0.771576
919.200,0.771524
919.300,0.772170
919.400,0.772823
919.500,0.773447
919.600,0.774101
919.700,0.774730
919.800,0.775346
919.900,0.775324
920.000,0.775970
920.100,0.776603
920.200,0.777200
920.300,0.777838
920.400,0.778436
920.500,0.779069
920.600,0.779055
920.700,0.779680
920.800,0.780275
920.900,0.780874
921.000,0.781502
921.100,0.782090
921.200,0.782681
921.300,0.782680
921.400,0.783284
921.500,0.783855
921.600,0.784465
921.700,0.785036
921.800,0.785641
921.900,0.786229
922.000,0.786187
922.100,0.786787
922.200,0.787359
922.300,0.787924
922.400,0.788523
922.500,0.789088
922.600,0.789646
922.700,0.790227
922.800,0.790203
922.900,0.790762
923.000,0.791332
923.100,0.791912
923.200,0.792449
923.300,0.792993
923.400,0.793561
923.500,0.793548
923.600,0.794063
923.700,0.794637
923.800,0.795178
923.900,0.795711
924.000,0.796272
924.100,0.796813
924.200,0.796766
924.300,0.797299
924.400,0.797854
924.500,0.798371
924.600,0.798908
924.700,0.799433
924.800,0.799979
924.900,0.799925
925.000,0.800455
925.100,0.800998
925.200,0.801484
925.300,0.802041
925.400,0.802540
925.500,0.803044
925.600,0.803553
925.700,0.803548
925.800,0.804025
925.900,0.804540
926.000,0.805043
926.100,0.805555
926.200,0.806077
926.300,0.806561
926.400,0.806506
926.500,0.807019
926.600,0.807535
926.700,0.807997
926.800,0.808496
926.900,0.809001
927.000,0.809509
927.100,0.809429
927.200,0.809923
927.300,0.810422
927.400,0.810896
927.500,0.811374
927.600,0.811861
927.700,0.812307
927.800,0.812819
927.900,0.812725
928.000,0.813218
928.100,0.813647
928.200,0.814113
928.300,0.814539
928.400,0.815025
928.500,0.815447
928.600,0.815389
928.700,0.815823
928.800,0.816291
928.900,0.816709
929.000,0.817147
929.100,0.817591
929.200,0.818053
929.300,0.817955
929.400,0.818399
929.500,0.818810
929.600,0.819284
929.700,0.819691
929.800,0.820129
929.900,0.820561
930.000,0.821001
930.100,0.820913
930.200,0.821335
930.300,0.821762
930.400,0.822181
930.500,0.822590
930.600,0.823022
930.700,0.823443
930.800,0.823362
930.900,0.823766
931.000,0.824178
931.100,0.824611
931.200,0.825010
931.300,0.825418
931.400,0.825830
931.500,0.825747
931.600,0.826158
931.700,0.826561
931.800,0.826970
931.900,0.827380
932.000,0.827760
932.100,0.828157
932.200,0.828094
932.300,0.828481
932.400,0.828876
932.500,0.829250
932.600,0.829678
932.700,0.830049
932.800,0.830453
932.900,0.830822
933.000,0.830771
933.100,0.831139
933.200,0.831505
933.300,0.831925
933.400,0.832303
933.500,0.832684
933.600,0.833045
933.700,0.832992
933.800,0.833352
933.900,0.833711
934.000,0.834111
934.100,0.834492
934.200,0.834865
934.300,0.835219
934.400,0.835599
934.500,0.835516
934.600,0.835882
934.700,0.836260
934.800,0.836609
934.900,0.836999
935.000,0.837346
935.100,0.837700
935.200,0.837633
935.300,0.837992
935.400,0.838344
935.500,0.838704
935.600,0.839069
935.700,0.839426
935.800,0.839773
935.900,0.839663
936.000,0.840055
936.100,0.840392
936.200,0.840736
936.300,0.841087
936.400,0.841444
936.500,0.841785
936.600,0.842132
936.700,0.842058
936.800,0.842404
936.900,0.842742
937.000,0.843069
937.100,0.843436
937.200,0.843770
937.300,0.844094
937.400,0.843997
937.500,0.844357
937.600,0.844688
937.700,0.845025
937.800,0.845345
937.900,0.845696
938.000,0.846030
938.100,0.845915
938.200,0.846248
938.300,0.846609
938.400,0.846923
938.500,0.847253
938.600,0.847597
938.700,0.847909
938.800,0.848235
938.900,0.848119
939.000,0.848476
939.100,0.848785
939.200,0.849105
939.300,0.849435
939.400,0.849764
939.500,0.850068
939.600,0.849967
939.700,0.850278
939.800,0.850604
939.900,0.850921
940.000,0.851230
940.100,0.851529
940.200,0.851863
940.300,0.852176
940.400,0.852066
940.500,0.852385
940.600,0.852696
940.700,0.852999
940.800,0.853293
940.900,0.853624
941.000,0.853916
941.100,0.853804
941.200,0.854095
941.300,0.854435
941.400,0.854724
941.500,0.855020
941.600,0.855323
941.700,0.855631
941.800,0.855518
941.900,0.855819
942.000,0.856126
942.100,0.856410
942.200,0.856715
942.300,0.856997
942.400,0.857300
942.500,0.857600
942.600,0.857492
942.700,0.857772
942.800,0.858072
942.900,0.858372
943.000,0.858649
943.100,0.858925
943.200,0.859244
943.300,0.859120
943.400,0.859395
943.500,0.859668
943.600,0.859984
943.700,0.860256
943.800,0.860527
943.900,0.860840
944.000,0.861120
944.100,0.860996
944.200,0.861264
944.300,0.861575
944.400,0.861841
944.500,0.862107
944.600,0.862394
944.700,0.862679
944.800,0.862553
944.900,0.862831
945.000,0.863101
945.100,0.863384
945.200,0.863659
945.300,0.863926
945.400,0.864186
945.500,0.864466
945.600,0.864352
945.700,0.864618
945.800,0.864896
945.900,0.865166
946.000,0.865429
946.100,0.865684
946.200,0.865958
946.300,0.865854
946.400,0.866115
946.500,0.866367
946.600,0.866640
946.700,0.866904
946.800,0.867162
946.900,0.867411
947.000,0.867681
947.100,0.867558
947.200,0.867820
947.300,0.868088
947.400,0.868335
947.500,0.868587
947.600,0.868846
947.700,0.869110
947.800,0.868986
947.900,0.869230
948.000,0.869487
948.100,0.869749
948.200,0.869998
948.300,0.870239
948.400,0.870492
948.500,0.870758
948.600,0.870626
948.700,0.870865
948.800,0.871117
948.900,0.871380
949.000,0.871617
949.100,0.871854
949.200,0.872096
949.300,0.871995
949.400,0.872230
949.500,0.872464
949.600,0.872704
949.700,0.872937
949.800,0.873170
949.900,0.873439
950.000,0.873670
950.100,0.873536
950.200,0.873766
950.300,0.874002
950.400,0.874244
950.500,0.874491
950.600,0.874725
950.700,0.874952
950.800,0.874817
950.900,0.875043
951.000,0.875288
951.100,0.875532
951.200,0.875757
951.300,0.875981
951.400,0.876210
951.500,0.876433
951.600,0.876327
951.700,0.876555
951.800,0.876776
951.900,0.876997
952.000,0.877218
952.100,0.877455
952.200,0.877693
952.300,0.877555
952.400,0.877779
952.500,0.877997
952.600,0.878215
952.700,0.878443
952.800,0.878683
952.900,0.878899
953.000,0.879114
953.100,0.878980
953.200,0.879195
953.300,0.879420
953.400,0.879651
953.500,0.879870
953.600,0.880073
953.700,0.880284
953.800,0.880149
953.900,0.880389
954.000,0.880600
954.100,0.880810
954.200,0.881025
954.300,0.881234
954.400,0.881442
954.500,0.881667
954.600,0.881530
954.700,0.881738
954.800,0.881955
954.900,0.882167
955.000,0.882372
955.100,0.882595
955.200,0.882799
955.300,0.882660
955.400,0.882864
955.500,0.883079
955.600,0.883287
955.700,0.883507
955.800,0.883708
955.900,0.883910
956.000,0.884107
956.100,0.883972
956.200,0.884190
956.300,0.884395
956.400,0.884594
956.500,0.884792
956.600,0.885001
956.700,0.885204
956.800,0.885074
956.900,0.885271
957.000,0.885473
957.100,0.885669
957.200,0.885864
957.300,0.886070
957.400,0.886287
957.500,0.886480
957.600,0.886324
957.700,0.886522
957.800,0.886715
957.900,0.886908
958.000,0.887117
958.100,0.887314
958.200,0.887515
958.300,0.887705
958.400,0.887555
958.500,0.887767
958.600,0.887957
958.700,0.888146
958.800,0.888340
958.900,0.888520
959.000,0.888707
959.100,0.888572
959.200,0.888764
959.300,0.888951
959.400,0.889137
959.500,0.889328
959.600,0.889514
959.700,0.889715
959.800,0.889899
959.900,0.889760
960.000,0.889937
960.100,0.890120
960.200,0.890308
960.300,0.890507
960.400,0.890689
960.500,0.890871
960.600,0.890720
960.700,0.890901
960.800,0.891092
960.900,0.891294
961.000,0.891474
961.100,0.891645
961.200,0.891824
961.300,0.892008
961.400,0.891866
961.500,0.892045
961.600,0.892223
961.700,0.892414
961.800,0.892591
961.900,0.892767
962.000,0.892956
962.100,0.893132
962.200,0.892973
962.300,0.893148
962.400,0.893327
962.500,0.893502
962.600,0.893692
962.700,0.893870
962.800,0.894043
962.900,0.893874
963.000,0.894047
963.100,0.894223
963.200,0.894411
963.300,0.894583
963.400,0.894758
963.500,0.894938
963.600,0.895108
963.700,0.894953
963.800,0.895127
963.900,0.895297
964.000,0.895466
964.100,0.895639
964.200,0.895807
964.300,0.895991
964.400,0.895825
964.500,0.895989
964.600,0.896156
964.700,0.896323
964.800,0.896494
964.900,0.896675
965.000,0.896841
965.100,0.897006
965.200,0.896835
965.300,0.897000
965.400,0.897164
965.500,0.897344
965.600,0.897511
965.700,0.897675
965.800,0.897838
965.900,0.897997
966.000,0.897842
966.100,0.898004
966.200,0.898166
966.300,0.898332
966.400,0.898493
966.500,0.898653
966.600,0.898826
966.700,0.898652
966.800,0.898813
966.900,0.898972
967.000,0.899136
967.100,0.899295
967.200,0.899461
967.300,0.899623
967.400,0.899781
967.500,0.899605
967.600,0.899763
967.700,0.899924
967.800,0.900096
967.900,0.900246
968.000,0.900406
968.100,0.900561
968.200,0.900717
968.300,0.900553
968.400,0.900712
968.500,0.900867
968.600,0.901014
968.700,0.901169
968.800,0.901326
968.900,0.901494
969.000,0.901312
969.100,0.901469
969.200,0.901616
969.300,0.901768
969.400,0.901920
969.500,0.902090
969.600,0.902241
969.700,0.902386
969.800,0.902205
969.900,0.902356
970.000,0.902506
970.100,0.902671
970.200,0.902824
970.300,0.902967
970.400,0.903116
970.500,0.903265
970.600,0.903077
970.700,0.903226
970.800,0.903368
970.900,0.903512
971.000,0.903659
971.100,0.903807
971.200,0.903968
971.300,0.903776
971.400,0.903917
971.500,0.904063
971.600,0.904209
971.700,0.904355
971.800,0.904501
971.900,0.904642
972.000,0.904780
972.100,0.904585
972.200,0.904730
972.300,0.904866
972.400,0.905011
972.500,0.905148
972.600,0.905291
972.700,0.905434
972.800,0.905591
972.900,0.905386
973.000,0.905525
973.100,0.905667
973.200,0.905810
973.300,0.905951
973.400,0.906086
973.500,0.906227
973.600,0.906368
973.700,0.906165
973.800,0.906298
973.900,0.906432
974.000,0.906572
974.100,0.906709
974.200,0.906848
974.300,0.906981
974.400,0.906787
974.500,0.906926
974.600,0.907065
974.700,0.907196
974.800,0.907328
974.900,0.907466
975.000,0.907603
975.100,0.907737
975.200,0.907525
975.300,0.907656
975.400,0.907785
975.500,0.907922
975.600,0.908059
975.700,0.908189
975.800,0.908324
975.900,0.908460
976.000,0.908242
976.100,0.908391
976.200,0.908517
976.300,0.908652
976.400,0.908786
976.500,0.908921
976.600,0.909049
976.700,0.908818
976.800,0.908952
976.900,0.909085
977.000,0.909219
977.100,0.909346
977.200,0.909476
977.300,0.909608
977.400,0.909740
977.500,0.909505
977.600,0.909637
977.700,0.909783
977.800,0.909914
977.900,0.910040
978.000,0.910171
978.100,0.910302
978.200,0.910425
978.300,0.910180
978.400,0.910311
978.500,0.910441
978.600,0.910571
978.700,0.910695
978.800,0.910825
978.900,0.910954
979.000,0.911083
979.100,0.910835
979.200,0.910964
979.300,0.911098
979.400,0.911223
979.500,0.911346
979.600,0.911474
979.700,0.911601
979.800,0.911351
979.900,0.911473
980.000,0.911593
980.100,0.911720
980.200,0.911847
980.300,0.911968
980.400,0.912091
980.500,0.912217
980.600,0.911958
980.700,0.912079
980.800,0.912198
980.900,0.912324
981.000,0.912462
981.100,0.912581
981.200,0.912706
981.300,0.912831
981.400,0.912563
981.500,0.912672
981.600,0.912796
981.700,0.912920
981.800,0.913039
981.900,0.913162
982.000,0.913286
982.100,0.913409
982.200,0.913118
982.300,0.913242
982.400,0.913365
982.500,0.913479
982.600,0.913614
982.700,0.913730
982.800,0.913851
982.900,0.913968
983.000,0.913678
983.100,0.913800
983.200,0.913915
983.300,0.914031
983.400,0.914152
983.500,0.914273
983.600,0.914385
983.700,0.914076
983.800,0.914197
983.900,0.914317
984.000,0.914432
984.100,0.914553
984.200,0.914685
984.300,0.914799
984.400,0.914918
984.500,0.914601
984.600,0.914714
984.700,0.914825
984.800,0.914944
984.900,0.915063
985.000,0.915176
985.100,0.915295
985.200,0.915413
985.300,0.915067
985.400,0.915185
985.500,0.915304
985.600,0.915416
985.700,0.915531
985.800,0.915654
985.900,0.915771
986.000,0.915883
986.100,0.915530
986.200,0.915640
986.300,0.915752
986.400,0.915869
986.500,0.915986
986.600,0.916097
986.700,0.916206
986.800,0.916319
986.900,0.915943
987.000,0.916054
987.100,0.916170
987.200,0.916286
987.300,0.916390
987.400,0.916505
987.500,0.916632
987.600,0.916223
987.700,0.916338
987.800,0.916444
987.900,0.916554
988.000,0.916669
988.100,0.916784
988.200,0.916898
988.300,0.917000
988.400,0.916563
988.500,0.916677
988.600,0.916786
988.700,0.916894
988.800,0.917008
988.900,0.917114
989.000,0.917227
989.100,0.917346
989.200,0.916861
989.300,0.916974
989.400,0.917088
989.500,0.917190
989.600,0.917303
989.700,0.917416
989.800,0.917517
989.900,0.917630
990.000,0.917091
990.100,0.917199
990.200,0.917312
990.300,0.917425
990.400,0.917526
990.500,0.917638
990.600,0.917745
990.700,0.917868
990.800,0.917255
990.900,0.917356
991.000,0.917465
991.100,0.917578
991.200,0.917685
991.300,0.917796
991.400,0.917901
991.500,0.918008
991.600,0.917275
991.700,0.917388
991.800,0.917477
991.900,0.917589
992.000,0.917698
992.100,0.917804
992.200,0.917909
992.300,0.916950
992.400,0.917058
992.500,0.917170
992.600,0.917276
992.700,0.917383
992.800,0.917483
992.900,0.917595
993.000,0.917693
993.100,0.916126
993.200,0.916240
993.300,0.916337
993.400,0.916444
993.500,0.916553
993.600,0.916666
993.700,0.916779
993.800,0.916868
993.900,0.909091
994.000,0.909214
994.100,0.909331
994.200,0.909447
994.300,0.909558
994.400,0.909674
994.500,0.909789
994.600,0.909911
994.700,0.906593
994.800,0.906704
994.900,0.906816
995.000,0.906941
995.100,0.907065
995.200,0.907184
995.300,0.907289
995.400,0.907413
995.500,0.905082
995.600,0.905208
995.700,0.905321
995.800,0.905432
995.900,0.905557
996.000,0.905676
996.100,0.905794
996.200,0.905918
996.300,0.904046
996.400,0.904154
996.500,0.904275
996.600,0.904400
996.700,0.904515
996.800,0.904635
996.900,0.904749
997.000,0.904861
997.100,0.903276
997.200,0.903402
997.300,0.903515
997.400,0.903630
997.500,0.903755
997.600,0.903865
997.700,0.903989
997.800,0.904109
997.900,0.902709
998.000,0.902827
998.100,0.902947
998.200,0.903072
998.300,0.903185
998.400,0.903299
998.500,0.903424
998.600,0.903532
998.700,0.902289
998.800,0.902414
998.900,0.902517
999.000,0.902641
999.100,0.902760
999.200,0.902878
999.300,0.903002
999.400,0.901857
999.500,0.901971
999.600,0.902091
999.700,0.902208
999.800,0.902327
999.900,0.902441
1000.000,0.902557